DTS Sentinel unit serial number:	SN307009Multiplexer serial number:	multiplexer serial numberHardware model number:	HL4Software version number:	Halo DTS v1.0data status	okinstallation	NYAN30AUG2019differential loss correction	combinedforward channel	channel 1reverse channel	channel 1 reversedate	2003/01/11time	03:18:09forward acquisition time	60.05reverse acquisition time	60.05gamma	510.3900k internal	0.1898k external	0.1898temperature offset calibration	1.0000default loss term (dB/km)	0.3938temperature slope calibration	NaNmultiplexer offset coefficient	1.0000multiplexer slope coefficient	1.0000fibre end	1298.10T internal ref (°C)	34.25T ext. ref 1 (°C)	NaNT ext. ref 2 (°C)	NaNlength (m)	temperature (°C)	forward Stokes	forward anti-Stokes	reverse Stokes	reverse anti-Stokes-584.984	-9.321	0.065	-0.041	0.047	0.040
-582.954	252.476	0.034	0.147	0.073	0.012
-580.925	345.561	-0.050	-0.286	0.048	-0.067
-578.896	700.000	-0.008	-0.112	-0.066	0.078
-576.867	66.003	0.030	-0.045	-0.100	-0.039
-574.838	700.000	0.002	0.039	0.052	-0.190
-572.808	-12.603	-0.113	0.068	-0.126	0.024
-570.779	98.825	-0.023	-0.044	-0.090	-0.048
-568.750	25.469	0.042	0.041	0.007	0.049
-566.721	510.557	-0.014	-0.114	-0.094	-0.147
-564.692	-19.707	0.125	0.067	-0.057	0.030
-562.662	-95.453	-0.048	-0.005	0.034	0.051
-560.633	700.000	-0.008	0.106	-0.033	0.049
-558.604	145.026	-0.016	-0.042	-0.087	0.074
-556.575	110.085	0.034	0.071	-0.081	0.000
-554.546	142.522	0.069	-0.179	-0.058	0.001
-552.517	146.977	0.061	-0.163	0.148	0.120
-550.487	31.912	0.076	0.081	-0.109	0.023
-548.458	25.727	0.011	0.011	-0.059	-0.049
-546.429	62.613	0.049	0.071	-0.139	-0.017
-544.400	-38.513	0.071	-0.028	0.069	-0.054
-542.371	700.000	-0.009	-0.173	-0.019	-0.012
-540.341	3.794	0.070	0.053	-0.141	-0.088
-538.312	-34.240	0.106	-0.044	-0.016	0.059
-536.283	351.706	0.029	-0.172	-0.104	0.001
-534.254	-25.163	0.105	0.052	-0.155	-0.053
-532.225	282.029	-0.036	0.173	-0.071	0.039
-530.195	-200.000	-0.003	-0.094	0.050	0.144
-528.166	700.000	-0.012	-0.139	-0.062	0.082
-526.137	-45.997	-0.002	0.001	-0.110	0.042
-524.108	65.445	0.037	0.055	0.135	-0.101
-522.079	76.098	0.052	-0.084	0.002	-0.042
-520.049	-61.347	-0.047	0.011	-0.047	0.149
-518.020	-54.157	0.028	-0.008	-0.014	-0.026
-515.991	152.734	0.038	-0.103	-0.049	0.004
-513.962	125.492	-0.043	-0.099	0.035	0.047
-511.933	19.914	-0.080	0.074	0.027	-0.057
-509.904	-69.238	-0.044	0.009	0.026	0.002
-507.874	47.076	0.040	0.049	-0.085	-0.031
-505.845	16.120	0.045	-0.040	0.060	-0.125
-503.816	-53.763	0.080	-0.023	-0.083	-0.129
-501.787	-25.755	0.057	0.028	-0.082	0.128
-499.758	-2.507	0.065	-0.045	0.065	0.056
-497.728	255.513	-0.029	0.125	-0.264	-0.088
-495.699	-99.461	-0.127	-0.011	-0.074	-0.053
-493.670	-183.453	-0.131	0.000	-0.023	-0.072
-491.641	-11.239	-0.068	-0.042	-0.096	-0.093
-489.612	107.044	0.036	0.074	-0.010	0.080
-487.582	-9.447	0.039	-0.025	0.007	0.078
-485.553	76.700	-0.092	-0.149	0.146	0.087
-483.524	151.425	-0.052	-0.142	-0.033	-0.122
-481.495	171.789	-0.074	0.223	0.031	0.029
-479.466	61.145	-0.058	0.083	-0.071	-0.026
-477.437	-36.114	-0.081	0.033	-0.078	-0.054
-475.407	-73.618	0.074	-0.013	0.045	0.036
-473.378	62.446	-0.069	0.099	-0.007	0.107
-471.349	162.756	-0.083	0.239	-0.020	0.112
-469.320	123.815	-0.020	-0.047	0.078	0.115
-467.291	205.882	-0.013	-0.048	-0.082	-0.017
-465.261	166.042	-0.071	0.210	0.054	-0.012
-463.232	-46.957	0.022	0.007	0.057	0.094
-461.203	-8.019	0.048	0.031	-0.003	0.068
-459.174	-16.004	-0.028	0.016	0.000	0.045
-457.145	5.247	0.074	-0.057	-0.091	-0.013
-455.115	700.000	-0.005	0.088	-0.071	-0.113
-453.086	122.041	0.062	0.142	-0.064	0.073
-451.057	-41.090	-0.047	-0.017	-0.017	-0.019
-449.028	42.548	0.014	0.017	-0.036	0.060
-446.999	29.216	-0.155	-0.160	0.030	0.085
-444.969	-56.212	-0.076	-0.021	0.051	0.024
-442.940	-18.953	-0.030	0.016	0.112	-0.016
-440.911	-92.254	0.041	0.004	0.034	-0.010
-438.882	29.967	-0.043	-0.044	-0.002	-0.034
-436.853	446.954	0.014	-0.101	0.024	0.011
-434.824	57.376	-0.038	0.053	-0.071	0.029
-432.794	-100.971	-0.044	-0.004	0.076	0.066
-430.765	-3.842	0.136	0.092	-0.155	-0.022
-428.736	84.119	0.061	0.105	-0.020	-0.015
-426.707	214.723	0.020	0.074	-0.031	-0.066
-424.678	447.420	-0.019	-0.141	-0.036	-0.045
-422.648	15.893	0.088	0.077	0.176	0.001
-420.619	51.585	-0.087	0.113	-0.021	-0.033
-418.590	49.537	0.047	-0.059	0.065	-0.024
-416.561	70.102	-0.042	-0.064	0.099	-0.040
-414.532	37.258	-0.109	0.122	-0.011	0.012
-412.502	-61.409	0.042	-0.010	0.086	0.114
-410.473	50.625	0.138	0.177	0.047	-0.011
-408.444	33.904	0.058	-0.063	-0.012	0.013
-406.415	160.396	0.016	0.047	-0.033	-0.101
-404.386	-44.548	0.020	-0.007	0.094	0.036
-402.357	-69.659	0.110	0.022	0.133	0.144
-400.327	186.664	-0.034	-0.110	0.078	0.035
-398.298	20.394	-0.035	0.032	0.043	0.037
-396.269	-73.862	-0.099	-0.018	0.016	0.037
-394.240	-47.541	-0.183	-0.060	0.052	0.045
-392.211	-44.652	-0.011	-0.004	0.002	0.043
-390.181	35.171	-0.016	-0.018	0.100	0.106
-388.152	-71.539	-0.159	0.030	-0.136	-0.001
-386.123	-61.346	0.070	-0.017	0.000	-0.086
-384.094	123.171	0.014	-0.031	-0.006	-0.006
-382.065	-90.249	0.113	0.013	0.005	0.155
-380.035	257.202	0.011	0.046	0.026	-0.143
-378.006	-62.388	0.072	0.017	-0.064	0.093
-375.977	22.059	-0.139	-0.131	-0.292	-0.191
-373.948	295.054	0.022	-0.109	0.023	-0.061
-371.919	115.405	0.023	-0.050	-0.045	-0.038
-369.889	-57.561	-0.088	-0.023	0.093	-0.079
-367.860	-45.213	-0.169	-0.058	0.131	-0.017
-365.831	700.000	-0.005	0.067	-0.015	0.014
-363.802	387.688	-0.020	-0.131	-0.003	-0.059
-361.773	700.000	-0.013	-0.137	0.134	-0.048
-359.744	700.000	-0.002	-0.032	-0.042	0.102
-357.714	66.578	0.010	0.016	0.128	0.111
-355.685	170.649	-0.047	0.142	-0.023	-0.232
-353.656	-200.000	-0.002	-0.093	0.007	0.251
-351.627	34.525	-0.115	0.126	0.037	0.112
-349.598	-91.649	0.117	0.013	0.066	-0.095
-347.568	64.966	-0.023	0.034	-0.055	0.029
-345.539	700.000	-0.010	-0.115	-0.070	0.041
-343.510	155.416	-0.032	-0.089	-0.005	0.021
-341.481	214.606	-0.027	-0.098	-0.135	-0.025
-339.452	6.506	-0.147	-0.115	0.081	0.087
-337.422	99.721	-0.011	0.021	0.023	-0.010
-335.393	324.457	-0.014	0.078	-0.045	0.003
-333.364	36.046	0.024	-0.027	0.025	-0.034
-331.335	-13.329	-0.106	0.063	-0.030	-0.059
-329.306	-75.163	-0.076	0.013	0.074	-0.052
-327.276	476.451	0.012	-0.094	-0.020	-0.025
-325.247	-15.703	0.071	0.041	-0.099	-0.083
-323.218	-20.821	0.023	0.012	0.009	0.034
-321.189	-50.246	0.128	-0.040	0.091	-0.020
-319.160	13.237	0.042	0.036	-0.020	0.066
-317.131	95.504	0.020	-0.037	0.037	0.068
-315.101	-34.701	0.117	0.049	-0.020	-0.188
-313.072	12.351	-0.071	0.059	0.066	0.044
-311.043	3.147	-0.112	-0.084	-0.016	0.018
-309.014	71.429	-0.037	0.057	-0.097	-0.079
-306.985	-85.977	0.082	0.011	-0.001	-0.117
-304.955	558.309	0.006	0.052	0.058	-0.009
-302.926	-11.307	0.091	0.056	-0.075	0.041
-300.897	34.710	0.080	0.088	-0.075	-0.030
-298.868	24.083	0.065	0.063	-0.055	-0.007
-296.839	-88.123	-0.037	-0.004	-0.103	0.011
-294.809	-27.208	0.115	-0.055	0.072	-0.008
-292.780	140.599	0.013	-0.034	-0.018	-0.176
-290.751	107.390	0.053	0.109	0.041	0.130
-288.722	-57.760	-0.070	0.018	-0.019	0.216
-286.693	-71.241	0.074	0.014	0.017	-0.110
-284.664	100.360	-0.071	0.139	-0.061	0.029
-282.634	528.264	0.007	-0.062	-0.002	-0.073
-280.605	-59.410	0.041	0.010	0.126	0.041
-278.576	-70.724	-0.171	0.033	0.136	0.074
-276.547	-109.940	-0.046	0.003	0.017	-0.115
-274.518	-46.278	0.252	0.084	-0.104	0.001
-272.488	237.232	0.024	-0.100	-0.082	-0.119
-270.459	132.939	-0.040	-0.098	0.199	0.002
-268.430	-9.556	-0.070	0.043	-0.024	-0.064
-266.401	-49.847	-0.032	0.010	0.072	-0.200
-264.372	-75.179	-0.050	-0.009	-0.022	0.042
-262.342	523.009	-0.006	-0.051	0.030	0.017
-260.313	-200.000	-0.003	0.138	-0.007	0.072
-258.284	44.487	0.098	-0.118	0.031	0.111
-256.255	-52.436	-0.143	-0.042	0.033	0.064
-254.226	76.159	-0.045	0.072	-0.002	-0.058
-252.196	186.187	0.030	-0.099	0.028	0.004
-250.167	62.448	-0.057	-0.082	-0.082	0.129
-248.138	294.159	-0.029	-0.143	-0.086	0.035
-246.109	-89.071	0.133	-0.016	-0.076	0.027
-244.080	33.394	-0.056	0.060	0.109	-0.013
-242.051	180.502	-0.029	0.093	-0.089	-0.102
-240.021	244.803	0.023	0.097	0.012	-0.017
-237.992	37.297	-0.035	0.039	0.174	0.071
-235.963	-60.179	0.040	-0.010	0.080	-0.112
-233.934	-25.995	0.072	0.035	-0.026	-0.136
-231.905	681.865	-0.004	0.037	0.065	0.057
-229.875	296.967	-0.015	-0.074	-0.034	-0.003
-227.846	103.333	0.055	-0.110	0.068	-0.160
-225.817	100.039	-0.037	-0.073	0.005	0.048
-223.788	41.696	0.064	-0.075	0.145	-0.056
-221.759	369.718	0.019	-0.119	-0.126	-0.093
-219.729	109.888	-0.071	0.148	-0.019	-0.131
-217.700	-44.806	0.053	0.018	0.093	-0.065
-215.671	101.938	-0.057	-0.114	0.038	0.095
-213.642	21.025	0.029	-0.027	0.063	-0.017
-211.613	-43.108	0.195	0.069	-0.066	0.109
-209.584	109.966	-0.031	-0.066	0.000	-0.014
-207.554	-4.641	0.073	0.049	-0.064	0.130
-205.525	59.924	-0.071	0.100	-0.052	0.083
-203.496	-9.272	0.061	-0.038	0.002	0.041
-201.467	-76.769	0.109	0.018	0.088	0.031
-199.438	-40.626	-0.076	0.028	-0.021	-0.047
-197.408	85.297	0.061	0.106	0.038	-0.051
-195.379	-100.340	-0.035	-0.003	-0.042	0.034
-193.350	86.215	0.069	-0.122	-0.030	0.108
-191.321	-153.107	-0.115	0.001	-0.112	-0.068
-189.292	5.688	0.053	0.041	0.013	-0.121
-187.262	700.000	-0.014	-0.164	-0.082	-0.079
-185.233	51.015	-0.059	-0.077	0.056	-0.028
-183.204	86.586	-0.071	-0.126	0.097	0.019
-181.175	138.115	-0.069	0.172	0.021	0.036
-179.146	394.694	0.003	-0.018	0.004	0.032
-177.116	-17.548	0.102	-0.057	-0.052	0.065
-175.087	-80.752	0.054	-0.008	0.063	-0.132
-173.058	-90.881	0.115	-0.013	0.161	0.072
-171.029	477.971	-0.003	0.020	-0.063	0.058
-169.000	38.295	0.102	-0.115	-0.038	-0.038
-166.971	-29.167	0.075	-0.035	-0.015	-0.028
-164.941	22.794	-0.098	0.093	0.006	-0.004
-162.912	4.606	0.090	0.069	0.064	0.131
-160.883	77.590	0.095	0.155	0.000	-0.107
-158.854	77.365	-0.030	0.049	-0.161	0.038
-156.825	-21.207	-0.121	-0.063	-0.148	-0.019
-154.795	700.000	-0.009	0.107	-0.004	0.169
-152.766	-81.834	0.190	-0.027	-0.022	-0.067
-150.737	18.465	0.049	-0.045	0.096	-0.074
-148.708	40.649	0.119	-0.139	-0.051	-0.090
-146.679	-29.406	-0.108	-0.049	-0.049	-0.011
-144.649	32.599	0.077	-0.082	0.117	0.090
-142.620	-61.421	-0.036	-0.009	0.003	-0.006
-140.591	43.260	0.073	0.087	-0.101	0.021
-138.562	66.172	-0.034	0.051	-0.111	0.077
-136.533	-90.323	0.183	-0.021	-0.100	-0.020
-134.503	13.538	-0.085	0.072	-0.008	-0.015
-132.474	-23.783	0.201	-0.101	0.049	-0.027
-130.445	242.728	-0.038	-0.157	0.001	-0.094
-128.416	18.979	0.057	-0.052	-0.022	-0.058
-126.387	6.864	0.092	0.073	-0.012	0.040
-124.358	-72.439	0.075	-0.014	0.044	-0.081
-122.328	193.919	-0.025	-0.085	-0.085	-0.038
-120.299	-200.000	0.001	-0.168	-0.032	0.021
-118.270	-75.401	0.057	-0.010	-0.109	-0.020
-116.241	45.554	-0.038	0.046	0.023	-0.002
-114.212	-42.981	0.064	-0.023	0.087	-0.030
-112.182	132.430	-0.021	0.050	0.051	-0.101
-110.153	85.842	0.047	-0.082	0.096	0.045
-108.124	-48.596	0.076	-0.024	0.098	0.125
-106.095	-51.942	-0.127	0.038	0.240	0.053
-104.066	-46.292	0.133	-0.045	-0.056	0.046
-102.036	42.621	-0.055	0.065	-0.115	0.053
-100.007	17.050	-0.063	-0.041	-0.107	0.036
-97.978	700.000	-0.004	0.033	0.151	0.031
-95.949	-79.625	0.190	0.024	-0.051	0.026
-93.920	81.752	0.110	-0.133	0.049	0.039
-91.891	-12.800	0.043	0.018	-0.048	0.064
-89.861	-88.573	-0.084	-0.009	-0.066	0.016
-87.832	-4.559	-0.050	-0.030	-0.020	-0.020
-85.803	-12.206	-0.046	0.024	0.010	-0.076
-83.774	100.716	0.045	0.066	0.180	-0.036
-81.745	83.459	-0.058	-0.083	0.204	-0.083
-79.715	37.781	0.088	-0.079	-0.128	-0.079
-77.686	90.536	-0.045	-0.066	-0.099	-0.055
-75.657	-108.338	0.149	0.006	0.047	0.107
-73.628	-200.000	-0.006	-0.142	-0.074	-0.009
-71.599	188.891	0.046	-0.136	0.123	-0.117
-69.569	277.810	-0.009	-0.037	0.086	0.003
-67.540	64.733	0.016	0.018	-0.053	0.054
-65.511	498.649	0.004	-0.029	-0.096	-0.132
-63.482	700.000	0.019	0.251	-0.034	0.014
-61.453	641.030	0.342	-3.057	0.269	-3.289
-59.423	86.835	-0.968	1.625	-1.008	1.593
-57.394	-47.052	-0.438	0.148	-0.321	0.244
-55.365	185.772	-13.579	-36.542	-13.147	-35.924
-53.336	700.000	98.822	906.522	96.061	889.245
-51.307	135.582	2350.666	3463.288	2353.336	3465.116
-49.278	60.574	1876.038	2137.957	1881.498	2148.831
-47.248	60.110	1761.507	2247.383	1760.183	2242.137
-45.219	71.955	1770.935	1966.967	1762.323	1959.845
-43.190	65.166	1736.025	1892.997	1726.517	1884.595
-41.161	39.103	1731.382	1885.667	1723.857	1879.076
-39.132	44.351	1729.688	1882.781	1722.698	1877.627
-37.102	60.043	1725.091	1877.388	1719.818	1874.009
-35.073	30.889	1722.777	1876.105	1717.504	1871.845
-33.044	46.264	1719.893	1872.003	1713.910	1866.729
-31.015	27.071	1717.443	1869.335	1708.883	1862.083
-28.986	43.745	1715.062	1865.471	1708.036	1860.477
-26.956	98.357	1711.712	1862.430	1706.874	1858.238
-24.927	90.348	1709.288	1857.814	1705.471	1856.104
-22.898	88.007	1706.682	1855.329	1702.622	1852.532
-20.869	18.778	1705.982	1854.141	1698.667	1847.881
-18.840	-52.515	1702.846	1850.749	1695.708	1845.033
-16.810	-32.183	1700.950	1847.747	1694.709	1842.414
-14.781	39.960	1698.685	1845.815	1692.488	1840.108
-12.752	-29.082	1696.327	1843.467	1690.822	1838.220
-10.723	46.699	1692.821	1838.760	1687.636	1834.060
-8.694	34.258	1691.476	1837.631	1686.551	1833.425
-6.665	32.229	1689.345	1835.000	1683.846	1831.376
-4.635	38.494	1686.723	1831.285	1683.828	1831.347
-2.606	38.417	1685.257	1828.501	1682.519	1828.814
-0.577	38.424	1682.784	1825.404	1679.730	1826.432
1.452	37.249	1646.847	1765.038	1667.024	1800.908
3.481	33.801	1375.274	1420.206	1418.613	1460.947
5.511	34.076	1253.442	1298.072	1113.005	1147.345
7.540	33.933	1234.752	1277.333	1084.635	1121.541
9.569	33.825	1217.801	1257.987	1058.342	1091.974
11.598	33.828	1213.124	1252.853	1051.629	1085.245
13.627	33.838	1210.609	1249.813	1050.688	1084.207
15.657	33.931	1212.284	1252.337	1052.208	1085.909
17.686	33.823	1210.166	1248.200	1049.481	1082.068
19.715	33.890	1208.254	1246.998	1048.561	1081.327
21.744	33.815	1205.918	1243.313	1048.537	1080.429
23.773	33.820	1199.777	1237.524	1044.839	1076.842
25.802	33.855	1197.292	1234.697	1041.923	1074.574
27.832	33.813	1193.695	1230.833	1039.591	1070.203
29.861	33.424	1186.979	1217.507	1035.790	1046.516
31.890	25.521	1166.409	1094.944	1009.130	921.808
33.919	22.326	1147.120	1039.738	998.117	895.068
35.948	22.208	1142.962	1031.581	991.422	883.948
37.978	20.805	1137.352	1019.966	993.309	885.268
40.007	18.896	1129.451	1012.613	990.234	879.722
42.036	19.613	1130.437	1014.335	988.019	878.264
44.065	18.214	1130.508	1013.421	989.146	879.475
46.094	17.664	1127.922	1012.655	987.251	878.921
48.124	17.659	1128.547	1012.263	985.926	877.136
50.153	17.587	1125.738	1008.723	985.689	877.167
52.182	17.519	1121.661	1004.709	983.881	875.546
54.211	17.534	1119.432	1002.542	983.116	880.788
56.240	18.138	1120.259	1011.087	1002.322	987.862
58.270	26.409	1139.521	1131.300	1013.030	1039.000
60.299	29.548	1148.343	1180.273	1013.260	1053.000
62.328	30.615	1151.765	1198.230	1015.008	1062.048
64.357	31.193	1153.952	1208.840	1015.692	1066.842
66.386	31.128	1156.963	1216.825	1014.122	1066.186
68.415	30.858	1157.059	1218.941	1011.848	1063.555
70.445	25.753	1155.570	1216.198	1007.342	1057.564
72.474	20.715	1150.696	1208.135	1009.751	1058.626
74.503	19.683	1149.375	1207.104	1005.963	1054.567
76.532	19.663	1147.898	1204.259	1005.550	1051.175
78.561	19.042	1143.049	1193.593	1003.014	1046.748
80.591	19.220	1140.849	1192.372	1003.286	1048.997
82.620	19.411	1143.409	1195.751	1002.864	1049.345
84.649	19.516	1138.810	1192.639	1001.313	1047.813
86.678	19.438	1139.269	1191.417	1001.082	1044.513
88.707	19.384	1137.762	1188.688	998.545	1040.383
90.737	19.268	1135.899	1184.577	992.321	1029.743
92.766	19.462	1130.727	1174.497	990.685	1027.463
94.795	19.775	1129.790	1171.505	993.097	1029.570
96.824	25.339	1127.072	1169.185	992.759	1029.899
98.853	30.347	1129.019	1172.531	992.588	1031.880
100.882	32.217	1128.024	1173.570	991.724	1033.534
102.912	32.889	1126.308	1174.554	988.432	1030.851
104.941	33.373	1123.614	1173.420	985.208	1029.105
106.970	33.603	1124.163	1174.892	985.862	1031.476
108.999	33.786	1122.132	1173.394	987.132	1028.298
111.028	33.271	1121.584	1168.095	985.391	1025.121
113.058	33.055	1121.907	1168.119	982.687	1025.377
115.087	33.315	1121.466	1170.426	982.004	1024.991
117.116	33.150	1119.503	1169.134	981.105	1024.552
119.145	33.052	1116.447	1166.291	977.777	1020.508
121.174	33.330	1112.729	1164.518	975.955	1018.081
123.204	33.347	1113.608	1164.245	977.747	1019.683
125.233	33.216	1112.635	1161.661	975.100	1018.091
127.262	33.248	1115.560	1166.589	972.590	1015.729
129.291	33.116	1111.720	1161.885	974.643	1017.072
131.320	32.855	1110.547	1160.161	969.441	1011.722
133.350	32.622	1110.192	1158.250	968.404	1010.466
135.379	32.729	1104.973	1154.054	970.309	1008.793
137.408	32.443	1102.637	1146.573	965.450	1002.388
139.437	32.532	1098.993	1141.533	965.475	1004.524
141.466	32.872	1100.179	1144.153	966.117	1000.824
143.495	32.750	1100.364	1141.213	960.714	993.862
145.525	32.656	1098.852	1137.157	960.155	995.188
147.554	32.831	1095.913	1135.412	960.008	995.493
149.583	32.755	1095.270	1135.626	956.311	992.219
151.612	32.789	1091.640	1133.781	955.066	990.756
153.641	32.999	1090.731	1132.565	955.180	989.306
155.671	32.899	1091.725	1130.823	951.710	982.969
157.700	32.863	1089.196	1126.568	950.820	982.274
159.729	32.914	1088.354	1125.446	953.880	987.023
161.758	33.095	1087.244	1126.530	950.470	983.106
163.787	33.039	1085.991	1125.604	947.353	977.232
165.817	33.023	1085.842	1123.996	944.637	976.119
167.846	33.175	1083.667	1122.206	943.995	977.609
169.875	33.239	1083.633	1123.942	944.146	979.842
171.904	33.273	1080.636	1121.798	944.202	979.646
173.933	33.362	1080.442	1122.126	945.000	978.619
175.963	33.042	1079.427	1119.097	940.168	972.566
177.992	32.752	1078.397	1117.595	938.628	970.591
180.021	32.625	1076.971	1113.702	938.469	971.127
182.050	32.740	1070.653	1108.614	939.616	973.541
184.079	32.717	1070.376	1110.113	935.961	968.044
186.108	32.612	1068.507	1106.550	932.760	966.328
188.138	32.839	1066.520	1105.874	932.987	968.313
190.167	33.090	1068.785	1110.046	933.225	967.858
192.196	33.183	1067.392	1109.117	932.766	967.228
194.225	33.132	1066.007	1107.444	931.042	968.882
196.254	33.218	1067.305	1111.504	930.304	967.565
198.284	33.143	1066.195	1109.991	928.973	964.860
200.313	33.193	1064.858	1107.268	928.626	963.421
202.342	33.139	1062.996	1103.156	925.242	958.014
204.371	32.946	1058.663	1096.740	922.014	956.305
206.400	33.078	1057.794	1098.061	921.964	954.786
208.430	33.128	1060.029	1098.452	921.321	953.312
210.459	33.178	1059.063	1096.642	920.757	952.023
212.488	33.216	1055.471	1092.300	918.064	948.003
214.517	33.075	1052.881	1089.401	917.750	947.494
216.546	32.998	1050.203	1086.201	916.787	945.482
218.575	32.866	1048.485	1082.280	918.006	946.545
220.605	32.845	1050.502	1084.913	915.422	944.794
222.634	32.998	1051.136	1085.567	915.122	945.612
224.663	33.179	1046.021	1081.806	914.163	944.810
226.692	33.157	1044.380	1080.193	914.710	943.171
228.721	33.202	1044.247	1078.656	910.895	938.234
230.751	33.254	1043.024	1076.987	907.609	938.878
232.780	33.574	1043.671	1080.677	909.242	938.123
234.809	33.583	1041.844	1076.190	905.657	934.652
236.838	33.738	1039.294	1074.535	905.402	934.867
238.867	33.585	1038.635	1073.369	904.979	935.330
240.897	33.536	1040.177	1075.253	904.360	931.186
242.926	33.224	1036.725	1069.141	900.734	924.362
244.955	32.917	1032.933	1061.172	899.954	925.762
246.984	33.062	1033.108	1063.360	900.073	926.344
249.013	33.093	1027.345	1057.905	898.683	925.643
251.043	33.322	1030.379	1063.519	895.512	921.798
253.072	33.036	1030.064	1060.483	895.471	923.576
255.101	33.233	1027.476	1060.660	896.141	923.899
257.130	33.076	1027.761	1059.925	894.559	921.879
259.159	33.107	1027.183	1060.051	891.931	916.505
261.188	32.969	1025.990	1055.579	894.419	920.746
263.218	33.068	1023.709	1052.597	894.906	923.113
265.247	33.512	1022.372	1055.898	891.052	917.780
267.276	33.420	1021.547	1054.135	888.860	917.251
269.305	33.404	1018.895	1051.895	889.332	917.535
271.334	33.521	1018.970	1051.365	887.729	915.414
273.364	33.544	1018.408	1050.235	887.953	911.938
275.393	33.213	1014.961	1043.323	885.137	905.756
277.422	32.951	1011.424	1036.927	883.086	907.711
279.451	33.412	1013.334	1043.222	883.079	908.677
281.480	33.397	1010.516	1040.712	884.080	911.501
283.510	33.225	1010.823	1042.974	884.389	909.664
285.539	33.040	1008.059	1037.721	881.078	905.306
287.568	33.037	1005.999	1034.628	877.232	903.523
289.597	33.568	1008.022	1039.888	877.764	904.535
291.626	33.466	1006.482	1037.627	879.831	904.917
293.655	33.399	1005.285	1034.574	877.299	903.376
295.685	33.565	1004.513	1035.610	871.479	896.602
297.714	33.534	1001.285	1031.648	871.718	896.284
299.743	33.320	1001.052	1029.702	874.622	897.032
301.772	33.103	1000.119	1027.221	869.229	891.713
303.801	33.358	997.020	1024.151	867.472	889.923
305.831	33.512	997.763	1024.916	868.136	889.439
307.860	33.394	997.101	1022.873	865.728	887.133
309.889	33.434	995.846	1022.103	866.567	888.127
311.918	33.371	993.718	1019.890	864.848	886.914
313.947	33.346	990.503	1017.254	864.820	887.835
315.977	33.063	988.536	1015.552	863.851	886.099
318.006	33.289	989.231	1016.015	863.049	885.355
320.035	33.472	987.833	1014.224	861.332	883.629
322.064	33.725	987.010	1014.144	859.459	880.115
324.093	33.460	987.540	1011.833	861.396	881.431
326.123	33.195	985.265	1008.665	858.617	878.796
328.152	33.501	982.810	1008.040	855.551	875.178
330.181	33.507	985.911	1009.196	854.631	875.454
332.210	33.564	983.487	1008.322	854.984	875.593
334.239	33.543	980.530	1004.403	854.711	874.362
336.268	33.603	979.455	1003.159	851.488	870.467
338.298	33.390	978.165	1000.444	850.148	870.867
340.327	33.394	977.600	1001.870	849.393	872.379
342.356	33.690	975.217	1002.830	851.571	873.284
344.385	33.610	972.878	998.953	849.812	869.167
346.414	33.485	972.390	996.989	847.164	866.381
348.444	33.310	972.610	995.374	847.325	867.110
350.473	33.455	970.980	994.703	845.432	866.748
352.502	33.753	970.817	996.985	844.204	865.532
354.531	33.822	969.516	995.430	843.978	863.586
356.560	33.620	965.266	988.961	844.045	862.093
358.590	33.389	962.427	984.002	840.444	857.548
360.619	33.287	961.368	981.449	838.621	853.966
362.648	33.122	962.726	981.504	837.879	854.013
364.677	33.088	963.422	982.637	837.701	853.073
366.706	33.121	963.505	982.087	835.901	852.155
368.736	33.123	959.647	978.542	836.461	852.867
370.765	33.283	957.356	976.736	837.083	853.751
372.794	33.347	958.840	978.913	834.482	851.209
374.823	33.418	956.594	977.397	833.199	849.694
376.852	33.296	954.290	973.989	831.621	847.772
378.881	33.357	954.905	974.558	830.211	846.836
380.911	33.765	953.056	973.657	829.826	845.243
382.940	33.642	951.895	970.349	826.947	841.150
384.969	33.486	949.345	967.033	826.091	839.429
386.998	33.294	947.964	964.941	826.000	839.897
389.027	33.319	947.760	964.821	825.172	838.329
391.057	33.488	947.837	965.008	824.224	837.426
393.086	33.643	945.781	963.391	822.715	837.166
395.115	33.589	947.189	964.992	824.356	840.157
397.144	33.430	944.816	962.883	824.409	839.908
399.173	33.281	942.507	960.266	820.147	834.597
401.203	33.246	941.172	958.892	819.187	832.571
403.232	33.130	937.327	953.896	819.388	833.034
405.261	33.191	936.226	953.275	816.630	828.648
407.290	33.171	936.265	952.803	815.424	827.845
409.319	33.167	935.159	950.833	814.179	826.826
411.348	33.249	932.874	948.583	814.995	827.486
413.378	33.377	932.348	948.547	811.985	823.438
415.407	33.270	930.093	945.302	812.690	824.388
417.436	33.240	930.697	945.239	811.670	823.722
419.465	33.377	929.570	944.955	809.610	823.901
421.494	33.552	927.043	944.765	811.236	826.317
423.524	33.445	927.093	944.578	807.607	819.840
425.553	33.231	925.197	940.903	807.152	819.881
427.582	33.314	922.456	938.680	807.890	820.254
429.611	33.326	922.272	938.064	806.678	820.099
431.640	33.289	923.261	938.811	805.628	819.646
433.670	33.549	920.860	937.383	804.378	818.085
435.699	33.718	919.092	936.034	803.047	816.050
437.728	33.493	918.533	933.550	801.674	813.838
439.757	33.479	916.881	931.734	798.955	809.946
441.786	33.221	914.860	927.094	798.154	808.870
443.816	33.323	911.534	924.373	798.206	808.605
445.845	33.355	911.652	925.204	795.389	805.703
447.874	33.287	909.386	922.020	794.165	805.692
449.903	33.340	908.966	921.428	795.642	804.949
451.932	33.340	909.656	921.645	795.237	804.460
453.961	33.134	908.531	919.460	793.790	802.262
455.991	33.104	907.751	918.232	792.851	800.903
458.020	33.117	906.027	915.470	792.078	800.033
460.049	33.263	906.605	915.313	791.490	799.581
462.078	33.427	906.384	915.208	790.335	797.298
464.107	33.321	903.698	912.265	788.406	794.893
466.137	33.143	900.996	908.505	785.722	791.457
468.166	33.148	899.925	907.193	784.790	790.665
470.195	33.159	899.984	906.695	783.947	789.270
472.224	33.285	898.345	905.219	784.103	790.190
474.253	33.361	896.070	903.010	783.551	790.279
476.283	33.387	896.174	903.881	782.836	790.018
478.312	33.380	893.351	901.609	780.538	786.914
480.341	33.103	891.163	897.872	778.940	786.889
482.370	33.358	889.594	899.065	779.487	788.710
484.399	33.605	893.079	904.275	776.518	784.738
486.428	33.509	890.783	900.600	774.438	780.525
488.458	33.154	887.694	894.510	775.813	781.505
490.487	33.133	885.126	892.052	775.178	781.957
492.516	33.307	885.828	895.128	773.936	780.726
494.545	33.261	886.831	895.444	773.391	779.526
496.574	33.025	885.541	892.878	771.816	777.979
498.604	33.068	884.657	892.459	772.417	778.357
500.633	33.047	882.547	889.730	771.596	777.678
502.662	33.136	880.286	888.243	771.903	779.957
504.691	33.250	880.650	890.399	770.457	777.648
506.720	33.201	880.745	890.596	770.536	778.354
508.750	33.380	877.693	888.792	768.487	776.903
510.779	33.390	876.942	887.573	766.476	773.250
512.808	33.424	876.621	886.694	766.307	773.415
514.837	33.459	877.569	887.441	760.823	765.774
516.866	33.380	874.987	883.000	760.265	764.644
518.896	33.094	872.980	878.524	761.525	766.052
520.925	33.248	872.642	878.807	759.162	762.230
522.954	33.267	871.858	876.025	758.851	762.517
524.983	33.276	869.517	873.335	759.125	763.744
527.012	33.312	867.924	873.734	758.801	762.335
529.041	33.079	867.424	871.907	759.868	765.330
531.071	33.420	865.289	871.375	757.106	761.543
533.100	33.515	863.462	869.829	755.909	758.289
535.129	33.149	863.735	867.607	753.653	756.277
537.158	33.131	864.539	867.791	754.559	757.348
539.187	33.108	862.890	865.182	753.735	755.555
541.217	33.144	860.471	862.225	749.512	750.598
543.246	33.315	860.816	863.321	747.663	748.720
545.275	33.316	861.075	862.424	749.922	750.611
547.304	33.306	856.490	856.295	749.440	750.079
549.333	33.501	854.523	855.632	745.595	745.566
551.363	33.266	852.317	852.085	747.356	748.679
553.392	33.384	856.099	857.225	744.619	745.203
555.421	33.373	856.101	857.534	741.042	740.500
557.450	32.986	853.487	853.466	739.968	738.287
559.479	32.874	851.253	850.271	737.426	735.684
561.509	32.816	850.766	849.502	737.989	736.948
563.538	32.744	848.610	847.141	735.675	735.159
565.567	33.003	844.875	844.816	731.025	730.049
567.596	32.978	844.696	844.298	730.708	730.524
569.625	33.170	844.486	844.780	731.713	731.274
571.654	33.150	844.562	843.904	730.055	730.256
573.684	33.204	843.737	844.660	730.515	730.793
575.713	33.026	842.366	843.275	729.033	729.160
577.742	33.054	840.104	841.388	728.987	730.079
579.771	33.168	841.292	844.056	726.983	726.649
581.800	33.135	841.586	843.700	724.447	726.227
583.830	33.317	840.787	843.946	724.701	726.902
585.859	33.290	840.160	843.880	724.129	726.216
587.888	33.311	839.294	842.721	723.301	724.793
589.917	33.402	838.435	843.144	722.969	722.905
591.946	33.308	837.698	840.665	721.067	721.263
593.976	33.398	835.071	838.289	718.279	718.530
596.005	33.353	833.009	836.140	717.691	718.177
598.034	33.226	831.680	834.246	716.187	717.358
600.063	33.276	829.738	832.920	715.779	715.904
602.092	33.081	825.771	826.871	714.456	714.398
604.121	33.105	825.922	826.246	711.114	710.901
606.151	33.050	827.124	826.939	707.998	707.958
608.180	33.063	824.352	823.626	707.766	707.631
610.209	33.069	823.847	822.803	706.655	706.727
612.238	33.231	824.131	823.090	704.438	704.361
614.267	33.186	821.297	819.572	703.448	703.444
616.297	33.204	819.853	818.453	703.963	703.671
618.326	33.296	819.823	818.376	702.574	702.345
620.355	33.318	817.824	815.255	702.943	702.828
622.384	33.527	817.604	816.076	701.463	700.470
624.413	33.589	816.124	813.975	700.932	700.076
626.443	33.534	811.012	808.297	699.275	698.423
628.472	33.658	811.710	809.602	696.950	695.894
630.501	33.650	811.979	809.948	694.316	693.224
632.530	33.685	811.101	809.271	697.116	695.882
634.559	33.721	809.933	807.925	695.948	694.875
636.589	33.612	809.782	806.937	694.545	693.159
638.618	33.697	806.850	804.453	694.435	692.829
640.647	33.573	806.014	803.226	692.716	691.004
642.676	33.410	803.279	800.558	692.365	690.252
644.705	33.356	802.162	799.185	692.472	690.708
646.734	33.317	802.531	799.210	690.292	687.679
648.764	33.283	801.118	797.661	689.827	687.368
650.793	33.332	799.539	795.851	690.040	687.676
652.822	33.349	800.473	796.945	686.790	684.163
654.851	33.317	801.046	797.012	684.347	683.080
656.880	33.355	800.080	796.162	684.569	684.310
658.910	33.368	797.011	793.006	682.971	682.223
660.939	33.309	795.028	790.194	681.539	681.116
662.968	33.332	792.502	787.912	681.966	681.081
664.997	33.310	792.968	788.126	682.088	680.899
667.026	33.204	793.015	787.188	681.110	680.366
669.056	33.381	791.945	787.458	680.412	678.973
671.085	33.405	790.775	786.438	679.519	678.428
673.114	33.394	789.247	784.931	678.108	675.860
675.143	33.363	786.751	781.520	677.268	674.522
677.172	33.083	786.936	779.144	675.552	671.698
679.202	33.311	785.932	780.172	672.958	668.106
681.231	33.076	784.968	777.013	673.005	668.225
683.260	33.051	784.393	776.204	671.927	667.453
685.289	33.112	781.898	774.156	671.533	665.464
687.318	32.934	781.936	772.812	669.680	663.551
689.347	32.926	778.112	768.949	667.922	660.926
691.377	32.840	775.864	766.120	666.432	659.828
693.406	32.895	777.450	768.079	667.457	659.869
695.435	32.752	776.236	765.494	667.246	659.320
697.464	32.726	772.988	761.221	666.500	658.575
699.493	32.717	772.168	760.552	666.944	659.510
701.523	32.748	770.107	759.157	667.737	660.691
703.552	32.881	771.093	761.347	665.390	658.265
705.581	32.826	769.812	759.841	661.279	652.915
707.610	32.823	765.887	754.849	661.148	653.646
709.639	33.007	766.468	756.040	660.687	652.250
711.669	32.967	763.771	752.789	663.019	655.599
713.698	32.874	759.114	747.718	660.942	653.121
715.727	32.733	758.618	747.770	659.453	651.033
717.756	32.842	760.206	749.790	659.782	651.965
719.785	32.797	759.249	748.778	659.202	651.041
721.814	32.703	756.881	745.846	656.860	649.964
723.844	32.751	756.696	746.064	655.465	649.864
725.873	32.951	756.200	747.695	654.892	648.979
727.902	32.883	757.115	748.039	655.017	647.819
729.931	32.668	754.196	743.915	653.388	646.544
731.960	32.719	753.149	743.186	653.502	645.511
733.990	32.441	750.894	738.959	653.287	645.562
736.019	32.405	749.582	738.031	652.673	645.517
738.048	32.522	749.550	739.096	651.159	643.281
740.077	32.501	746.150	734.739	651.289	645.488
742.106	32.786	745.236	735.006	651.504	646.168
744.136	33.140	747.976	739.721	649.146	643.736
746.165	32.897	746.611	737.173	648.156	643.672
748.194	33.051	747.153	738.846	646.779	642.213
750.223	32.942	747.019	737.620	647.557	641.868
752.252	32.976	745.550	736.166	645.763	639.112
754.282	32.983	744.797	735.358	643.873	636.649
756.311	32.895	742.555	731.926	644.172	636.222
758.340	32.846	741.857	729.982	644.097	635.717
760.369	32.792	739.629	727.212	643.048	633.852
762.398	32.817	739.231	727.232	642.849	634.604
764.427	33.040	737.560	726.013	640.240	632.099
766.457	33.227	736.416	725.125	638.451	628.604
768.486	32.833	735.576	722.228	638.087	628.518
770.515	32.760	732.782	718.691	639.463	631.445
772.544	33.200	732.847	722.564	639.086	631.327
774.573	33.090	733.284	722.799	635.417	625.968
776.603	32.913	730.984	718.323	634.656	624.125
778.632	32.849	730.954	717.505	634.701	624.823
780.661	32.915	731.247	717.961	634.968	624.132
782.690	32.965	730.350	715.909	633.705	622.640
784.719	32.919	729.137	714.030	633.269	621.482
786.749	33.025	727.284	712.057	632.091	620.003
788.778	33.003	726.054	710.668	631.053	618.435
790.807	32.823	725.105	708.920	630.106	617.799
792.836	32.975	725.623	710.204	630.159	618.510
794.865	32.869	725.440	710.275	630.530	618.901
796.894	32.861	724.549	709.946	628.815	616.987
798.924	32.837	723.569	708.691	627.605	615.391
800.953	32.834	722.662	707.743	627.080	616.055
802.982	32.906	721.827	707.067	625.840	614.364
805.011	32.991	721.044	706.802	625.204	614.340
807.040	32.833	720.034	705.316	623.161	612.447
809.070	32.839	717.265	702.663	621.837	611.667
811.099	33.032	716.438	701.864	622.053	611.746
813.128	33.213	716.882	702.524	620.318	609.386
815.157	33.111	714.881	700.350	620.857	609.809
817.186	32.873	714.024	699.031	620.775	610.694
819.216	33.110	714.251	700.961	620.510	610.805
821.245	33.046	713.887	700.209	619.427	610.337
823.274	33.121	713.035	700.474	619.272	609.887
825.303	33.050	712.685	700.231	618.981	608.782
827.332	33.012	711.772	698.890	617.015	606.377
829.362	32.720	711.282	696.145	615.470	604.494
831.391	32.794	708.605	693.660	615.508	604.793
833.420	32.775	708.267	692.721	614.896	605.236
835.449	33.174	708.775	695.428	613.192	602.832
837.478	33.018	705.771	691.120	613.523	601.475
839.507	32.845	705.793	689.819	612.307	599.443
841.537	32.773	704.550	687.786	610.384	597.037
843.566	32.834	702.652	685.843	610.093	597.772
845.595	32.876	703.625	686.880	607.960	595.430
847.624	33.032	701.112	684.204	608.144	595.132
849.653	33.048	699.521	682.984	607.042	593.677
851.683	32.903	699.450	682.100	604.989	592.161
853.712	33.042	699.824	683.296	604.148	590.974
855.741	32.966	698.270	680.981	604.851	591.752
857.770	33.152	697.679	681.032	603.748	590.465
859.799	33.370	699.052	683.234	603.780	591.029
861.829	33.410	697.446	681.358	603.318	590.060
863.858	33.317	694.652	677.616	601.474	586.741
865.887	33.075	694.453	675.933	601.075	586.590
867.916	33.006	693.367	675.154	599.322	584.527
869.945	32.931	692.360	673.643	598.013	582.930
871.975	32.797	690.671	671.233	597.324	582.453
874.004	33.161	689.800	671.530	597.233	582.859
876.033	33.256	690.032	672.252	596.843	583.098
878.062	33.170	688.409	671.549	596.387	582.355
880.091	32.911	688.333	670.322	594.511	580.072
882.120	32.892	687.255	669.353	594.511	580.419
884.150	33.065	686.872	669.717	594.234	579.606
886.179	32.954	687.440	669.133	591.945	576.963
888.208	32.918	685.190	666.788	592.343	576.748
890.237	32.867	683.545	665.113	593.059	577.242
892.266	32.877	682.805	663.651	591.498	575.585
894.296	32.845	681.235	661.687	589.559	573.771
896.325	32.890	680.068	660.337	587.056	571.408
898.354	33.093	680.083	661.026	586.275	571.203
900.383	33.174	681.243	662.348	586.460	572.702
902.412	33.168	679.512	661.301	587.547	574.558
904.442	33.225	678.630	661.869	586.974	573.514
906.471	33.137	677.594	660.548	586.008	571.388
908.500	33.066	677.251	659.306	585.129	570.057
910.529	32.907	675.217	656.342	583.700	569.498
912.558	33.034	675.579	657.247	582.740	569.207
914.587	33.246	675.624	657.974	582.464	569.219
916.617	33.365	672.597	654.950	582.498	566.820
918.646	33.182	671.111	652.221	581.792	565.460
920.675	33.072	670.520	650.804	580.969	564.914
922.704	33.156	671.284	651.957	580.199	564.005
924.733	33.055	669.544	649.570	580.501	564.755
926.763	33.088	667.724	648.199	580.265	563.327
928.792	32.861	667.137	646.160	577.506	561.317
930.821	32.915	667.719	647.632	577.460	560.320
932.850	32.822	668.110	647.139	577.338	560.623
934.879	32.731	665.437	644.184	575.581	559.420
936.909	33.117	665.060	645.770	575.008	558.469
938.938	33.169	664.413	644.672	573.772	557.487
940.967	33.244	663.815	643.595	572.070	556.118
942.996	33.467	662.551	642.686	571.931	555.397
945.025	33.382	660.978	640.233	572.093	555.131
947.055	33.315	659.971	639.632	572.239	554.826
949.084	33.074	658.370	637.035	571.314	553.947
951.113	33.042	658.181	636.710	570.331	553.047
953.142	33.233	655.825	634.517	568.664	551.092
955.171	33.347	656.076	634.380	569.154	551.244
957.200	33.236	657.988	636.383	567.833	551.150
959.230	33.087	654.145	633.038	566.540	550.697
961.259	33.255	652.532	632.681	567.091	550.994
963.288	33.392	655.105	635.505	566.212	549.199
965.317	33.243	655.253	634.308	565.722	549.836
967.346	33.272	652.321	632.257	565.069	548.261
969.376	33.277	650.408	630.433	562.508	544.154
971.405	32.991	651.368	629.413	562.250	545.248
973.434	33.219	651.973	631.262	562.270	545.804
975.463	33.403	650.927	630.555	561.163	543.461
977.492	33.200	648.739	626.751	561.066	542.767
979.522	33.081	646.868	624.184	558.229	537.065
981.551	32.704	646.422	620.833	559.092	540.255
983.580	32.976	646.865	623.438	559.608	541.248
985.609	33.176	645.420	623.864	558.260	540.446
987.638	33.190	644.466	623.218	557.394	539.605
989.667	33.199	642.311	621.300	557.386	539.723
991.697	33.153	642.633	620.749	556.230	538.197
993.726	33.203	643.609	621.806	555.590	535.427
995.755	32.845	641.869	617.817	555.478	535.724
997.784	32.973	638.712	614.582	555.053	535.959
999.813	33.344	638.725	616.366	554.032	534.599
1001.843	33.382	637.679	615.118	552.230	533.299
1003.872	33.284	635.812	613.032	552.318	532.195
1005.901	33.144	634.561	610.252	550.849	531.872
1007.930	33.379	634.843	611.974	548.779	527.952
1009.959	32.922	634.142	609.405	549.725	528.671
1011.989	32.824	632.737	607.365	548.264	526.062
1014.018	32.787	631.824	605.032	549.346	529.601
1016.047	33.084	632.563	608.152	549.123	530.031
1018.076	33.205	631.360	608.607	547.291	527.629
1020.105	32.800	630.423	607.160	546.341	526.745
1022.135	32.797	629.191	605.142	546.122	526.812
1024.164	33.198	629.721	605.912	546.212	526.924
1026.193	33.364	627.047	603.516	544.420	523.680
1028.222	33.087	627.670	602.117	543.467	523.195
1030.251	33.108	627.840	603.197	542.075	521.944
1032.280	33.191	626.995	602.611	541.994	521.885
1034.310	33.044	625.965	601.279	543.096	522.183
1036.339	32.792	624.530	599.384	541.513	519.502
1038.368	32.872	624.360	598.806	539.487	517.625
1040.397	32.860	622.629	596.401	538.892	517.503
1042.426	32.997	621.425	595.890	538.669	517.510
1044.456	32.824	620.063	594.242	538.585	517.857
1046.485	32.947	620.049	595.086	539.470	518.642
1048.514	32.859	619.183	593.915	538.431	517.544
1050.543	32.890	617.790	593.125	536.095	515.749
1052.572	32.726	616.138	591.572	534.976	514.088
1054.602	32.742	617.000	591.482	535.900	515.609
1056.631	33.251	617.380	592.977	535.523	515.494
1058.660	33.335	616.048	592.020	535.275	516.088
1060.689	33.478	615.215	592.519	533.895	514.847
1062.718	33.327	614.081	590.646	532.416	511.790
1064.748	33.227	613.714	588.592	532.189	511.156
1066.777	33.048	612.385	587.555	531.263	510.118
1068.806	32.943	610.607	585.441	528.884	506.512
1070.835	32.883	609.117	582.475	528.281	506.087
1072.864	32.947	609.673	583.111	527.510	505.515
1074.893	32.958	610.038	584.065	526.574	503.193
1076.923	32.535	608.219	580.240	527.890	505.099
1078.952	32.495	606.608	578.526	527.612	504.511
1080.981	32.661	606.158	578.665	527.058	503.832
1083.010	32.758	607.099	579.915	526.056	504.040
1085.039	32.890	605.470	578.624	525.115	502.547
1087.069	32.952	603.728	576.829	524.988	502.189
1089.098	32.862	602.399	574.525	524.008	499.566
1091.127	32.721	600.940	571.486	523.650	499.454
1093.156	32.558	600.761	570.751	522.512	498.808
1095.185	32.872	600.918	572.324	521.459	497.320
1097.215	32.864	600.915	571.490	520.764	495.452
1099.244	32.736	597.575	566.785	519.928	494.641
1101.273	32.869	596.635	566.269	519.482	495.130
1103.302	32.890	596.380	567.515	518.035	494.063
1105.331	32.784	594.456	565.532	517.671	493.538
1107.360	32.909	594.107	565.651	517.209	492.581
1109.390	32.663	594.260	564.898	516.626	491.445
1111.419	32.409	592.329	562.455	516.701	490.864
1113.448	32.311	591.465	560.584	516.205	491.487
1115.477	32.497	592.427	562.867	514.973	490.766
1117.506	32.522	590.718	561.889	513.472	488.268
1119.536	32.351	589.764	559.888	513.097	489.286
1121.565	32.677	590.214	561.818	513.106	490.605
1123.594	32.986	587.784	560.458	514.163	491.263
1125.623	33.145	587.090	560.363	513.062	490.242
1127.652	32.968	587.773	560.746	512.810	490.779
1129.682	32.839	585.107	558.639	512.863	490.370
1131.711	32.453	585.129	557.351	510.423	487.047
1133.740	32.544	584.287	556.287	509.423	486.682
1135.769	32.552	581.843	553.433	507.892	485.340
1137.798	32.582	581.623	553.979	508.226	485.385
1139.828	32.527	581.558	553.931	507.953	484.480
1141.857	32.575	580.783	552.411	507.827	484.178
1143.886	32.766	579.877	551.636	506.997	481.525
1145.915	32.463	580.165	549.776	505.317	480.345
1147.944	32.583	579.446	550.012	504.852	481.086
1149.973	32.795	577.579	549.776	504.123	480.115
1152.003	32.475	575.824	547.021	502.991	478.443
1154.032	32.395	576.043	546.504	502.521	477.542
1156.061	32.737	576.595	547.148	502.311	476.103
1158.090	32.282	575.481	543.534	501.267	474.053
1160.119	32.116	574.607	541.523	499.504	471.612
1162.149	32.347	573.042	539.806	498.793	470.801
1164.178	32.364	570.320	536.722	498.183	470.436
1166.207	32.430	569.965	536.782	498.844	472.547
1168.236	32.888	571.657	540.777	498.650	472.627
1170.265	32.945	571.620	541.057	497.823	472.581
1172.295	33.001	570.675	540.979	497.026	472.054
1174.324	33.080	570.407	541.265	497.168	471.731
1176.353	32.881	569.035	538.553	494.909	468.729
1178.382	32.791	567.661	536.433	494.609	468.615
1180.411	32.858	567.479	536.754	495.218	471.037
1182.441	33.146	566.503	537.714	494.508	469.733
1184.470	32.866	566.542	537.316	493.941	470.030
1186.499	32.874	564.560	535.427	494.658	472.048
1188.528	33.357	565.423	537.180	494.581	471.172
1190.557	33.372	565.127	536.954	493.316	469.580
1192.586	33.118	564.624	535.845	491.087	465.576
1194.616	32.687	563.158	532.466	489.205	462.256
1196.645	32.234	561.334	529.165	486.745	455.675
1198.674	31.173	560.436	523.346	480.843	430.744
1200.703	26.453	552.798	490.165	471.136	386.998
1202.732	19.198	542.450	441.956	467.039	382.005
1204.762	18.768	539.428	437.011	465.297	377.349
1206.791	18.375	537.390	431.991	464.916	376.818
1208.820	18.425	535.318	429.658	464.356	376.337
1210.849	18.621	534.171	428.673	463.092	374.953
1212.878	18.636	532.547	427.122	462.415	374.652
1214.908	18.537	530.560	425.262	460.415	372.639
1216.937	18.365	530.034	424.626	458.460	369.828
1218.966	18.566	528.860	424.416	459.349	372.058
1220.995	18.512	526.004	420.801	458.571	371.201
1223.024	18.533	525.401	420.064	457.261	369.625
1225.053	20.726	528.648	433.406	461.417	390.874
1227.083	29.802	537.523	488.400	465.955	426.766
1229.112	30.728	539.870	495.352	467.484	429.874
1231.141	31.264	540.374	499.055	467.038	432.179
1233.170	31.235	540.797	500.791	466.476	431.918
1235.199	30.655	541.162	500.918	466.884	432.462
1237.229	29.486	540.132	499.160	465.852	431.514
1239.258	26.630	539.695	498.732	466.060	430.663
1241.287	19.958	539.331	498.953	465.279	430.348
1243.316	17.136	537.345	496.729	463.671	428.546
1245.345	16.985	536.517	495.998	463.095	428.280
1247.375	16.935	536.678	495.940	463.024	428.234
1249.404	16.910	534.640	493.698	463.023	427.966
1251.433	15.909	557.415	508.866	463.316	427.593
1253.462	22.222	564.987	556.513	534.270	507.739
1255.491	14.889	418.306	377.515	414.979	387.149
1257.521	20.892	385.178	372.903	374.628	358.154
1259.550	20.846	371.815	359.346	365.445	354.989
1261.579	21.498	367.403	356.294	360.389	348.325
1263.608	22.792	366.252	355.250	358.905	347.814
1265.637	29.694	365.739	354.605	358.007	346.934
1267.666	33.327	365.308	354.029	357.409	345.742
1269.696	33.963	364.619	353.484	357.076	345.726
1271.725	33.871	364.276	352.791	356.749	345.036
1273.754	33.846	363.679	352.240	356.233	344.762
1275.783	33.999	362.834	351.821	355.742	344.182
1277.812	33.828	362.693	350.999	355.631	344.084
1279.842	34.013	362.480	351.277	354.932	343.258
1281.871	34.011	362.005	350.745	354.430	342.675
1283.900	33.820	361.556	349.584	354.422	342.463
1285.929	33.948	360.659	349.240	353.972	341.981
1287.958	34.036	359.853	348.261	353.530	341.344
1289.988	33.996	359.639	348.466	353.239	341.276
1292.017	33.786	359.692	348.284	352.724	340.793
1294.046	36.927	359.647	347.495	352.270	340.157
1296.075	38.615	358.965	347.313	351.875	340.004
1298.104	38.819	358.391	346.961	351.537	339.528
1300.133	38.813	357.710	346.164	351.036	339.067
1302.163	38.802	357.549	345.907	350.487	338.670
1304.192	24.478	798.845	660.453	764.612	633.702
1306.221	52.115	958.806	1061.262	929.801	1040.787
1308.250	-46.254	220.643	62.634	214.570	61.776
1310.279	46.856	88.082	92.564	85.511	88.863
1312.309	-34.305	21.858	7.770	21.079	7.812
1314.338	-65.926	0.976	0.181	0.872	0.259
1316.367	139.884	-0.132	-0.284	-0.312	-0.183
1318.396	74.036	-0.240	-0.323	-0.185	-0.292
1320.425	74.079	-0.334	-0.451	-0.247	-0.343
1322.455	61.411	-0.389	-0.469	-0.270	-0.509
1324.484	75.365	-0.371	-0.505	-0.365	-0.422
1326.513	76.089	-0.397	-0.544	-0.379	-0.258
1328.542	82.002	-0.383	-0.551	-0.549	-0.633
1330.571	62.124	-0.425	-0.515	-0.578	-0.451
1332.601	77.875	-0.463	-0.643	-0.432	-0.540
1334.630	47.125	-0.560	-0.588	-0.517	-0.552
1336.659	61.978	-0.516	-0.625	-0.513	-0.466
1338.688	56.331	-0.543	-0.623	-0.411	-0.479
1340.717	67.384	-0.470	-0.589	-0.427	-0.616
1342.746	58.149	-0.484	-0.502	-0.535	-0.535
1344.776	88.746	-0.499	-0.701	-0.544	-0.573
1346.805	78.111	-0.573	-0.624	-0.426	-0.610
1348.834	125.289	-0.604	-0.586	-0.370	-0.700
1350.863	700.000	-0.415	-0.670	-0.399	-0.492
1352.892	244.112	-0.444	-0.678	-0.537	-0.480
1354.922	80.189	-0.485	-0.503	-0.512	-0.468
1356.951	700.000	-0.571	-0.456	-0.497	-0.555
1358.980	700.000	-0.530	-0.633	-0.631	-0.516
1361.009	49.595	-0.559	-0.564	-0.570	-0.462
1363.038	-126.342	-0.518	-0.587	-0.437	-0.550
1365.068	-28.315	-0.522	-0.611	-0.561	-0.608
1367.097	37.654	-0.501	-0.704	-0.544	-0.509
1369.126	158.183	-0.643	-0.790	-0.441	-0.606
1371.155	433.618	-0.507	-0.575	-0.407	-0.629
1373.184	-67.374	-0.473	-0.592	-0.455	-0.514
1375.214	-12.887	-0.487	-0.446	-0.496	-0.603
1377.243	48.953	-0.478	-0.755	-0.497	-0.518
1379.272	-43.267	-0.566	-0.705	-0.529	-0.682
1381.301	53.681	-0.665	-0.724	-0.599	-0.643
1383.330	235.205	-0.529	-0.642	-0.577	-0.621
1385.359	-83.252	-0.587	-0.689	-0.646	-0.596
1387.389	35.867	-0.465	-0.497	-0.464	-0.573
1389.418	192.187	-0.396	-0.583	-0.358	-0.519
1391.447	99.540	-0.477	-0.657	-0.523	-0.539
1393.476	-44.310	-0.533	-0.541	-0.525	-0.688
1395.505	92.457	-0.427	-0.707	-0.459	-0.663
1397.535	6.455	-0.344	-0.581	-0.554	-0.511
