DTS Sentinel unit serial number:	SN409016Multiplexer serial number:	ORYXHardware model number:	OX4-SRSoftware version number:	ORYX F/W v4,00 Oryx Data Collector v3.7.3data status	okinstallation	mike1234differential loss correction	combinedforward channel	channel 1reverse channel	channel 1 reversedate	2020/03/06time	18:33:46forward acquisition time	60,00reverse acquisition time	60,00gamma	499,5406k internal	0,2556k external	0,2556temperature offset calibration	1,0000default loss term (dB/km)	0,3750temperature slope calibration	0,0000multiplexer offset coefficient	1,0000multiplexer slope coefficient	1,0000fibre end	0,00T internal ref (°C)	16,80T ext. ref 1 (°C)	6,66T ext. ref 2 (°C)	6,62length (m)	temperature (°C)	forward Stokes	forward anti-Stokes	reverse Stokes	reverse anti-Stokes-746,700	141,683	0,015	-0,022	1447,518	1404,505
-745,685	203,032	-0,042	0,082	1447,518	1404,505
-744,671	193,975	-0,129	-0,239	1447,518	1404,505
-743,656	389,370	0,049	0,170	1447,518	1404,505
-742,642	-98,716	0,094	0,005	1447,518	1404,505
-741,627	151,920	0,081	0,122	1447,518	1404,505
-740,612	35,435	0,037	-0,023	1447,518	1404,505
-739,598	122,356	-0,142	-0,179	1447,518	1404,505
-738,583	224,499	-0,052	0,109	1447,518	1404,505
-737,569	35,119	-0,159	0,098	1447,518	1404,505
-736,554	-38,339	0,110	-0,025	1447,518	1404,505
-735,539	-51,336	-0,140	0,024	1447,518	1404,505
-734,525	179,281	0,351	-0,608	1447,518	1404,505
-733,510	800,000	-0,064	0,406	1447,518	1404,505
-732,496	800,000	-0,017	0,153	1447,518	1404,505
-731,481	58,658	-0,173	0,135	1447,518	1404,505
-730,466	-200,000	0,000	0,016	1447,518	1404,505
-729,452	196,536	-0,129	-0,242	1447,518	1404,505
-728,437	-8,641	-0,223	-0,081	1447,518	1404,505
-727,423	-200,000	-0,006	-0,311	1447,518	1404,505
-726,408	59,843	-0,362	-0,285	1447,518	1404,505
-725,394	263,353	-0,035	0,085	1447,518	1404,505
-724,379	104,715	0,066	0,074	1447,518	1404,505
-723,364	208,103	-0,147	-0,292	1447,518	1404,505
-722,350	-61,922	0,240	-0,033	1447,518	1404,505
-721,335	24,138	-0,247	0,135	1447,518	1404,505
-720,321	98,367	-0,068	-0,073	1447,518	1404,505
-719,306	39,259	0,054	-0,035	1447,518	1404,505
-718,291	-50,635	-0,108	-0,019	1447,518	1404,505
-717,277	-33,525	0,386	0,094	1447,518	1404,505
-716,262	-140,102	-0,122	0,001	1447,518	1404,505
-715,248	162,413	0,111	-0,176	1447,518	1404,505
-714,233	23,387	0,564	0,306	1447,518	1404,505
-713,218	-112,087	0,338	0,011	1447,518	1404,505
-712,204	-37,289	0,324	0,074	1447,518	1404,505
-711,189	36,505	-0,137	0,085	1447,518	1404,505
-710,175	181,812	-0,063	-0,111	1447,518	1404,505
-709,160	279,699	0,044	-0,115	1447,518	1404,505
-708,145	234,472	-0,046	0,101	1447,518	1404,505
-707,131	363,269	0,137	-0,449	1447,518	1404,505
-706,116	169,351	-0,077	-0,126	1447,518	1404,505
-705,102	-32,428	-0,196	0,049	1447,518	1404,505
-704,087	195,204	-0,122	0,228	1447,518	1404,505
-703,072	184,846	-0,064	0,114	1447,518	1404,505
-702,058	282,926	-0,164	-0,428	1447,518	1404,505
-701,043	-51,302	0,184	-0,032	1447,518	1404,505
-700,029	537,457	-0,104	-0,479	1447,518	1404,505
-699,014	204,747	0,098	-0,191	1447,518	1404,505
-697,999	611,574	0,027	-0,136	1447,518	1404,505
-696,985	188,906	0,130	-0,236	1447,518	1404,505
-695,970	61,319	-0,089	-0,071	1447,518	1404,505
-694,956	132,785	-0,170	-0,229	1447,518	1404,505
-693,941	103,717	-0,205	-0,229	1447,518	1404,505
-692,926	-78,489	-0,315	-0,029	1447,518	1404,505
-691,912	622,277	-0,021	0,111	1447,518	1404,505
-690,897	72,464	0,062	-0,054	1447,518	1404,505
-689,883	-33,331	0,219	-0,054	1447,518	1404,505
-688,868	800,000	0,032	-0,261	1447,518	1404,505
-687,854	79,504	-0,124	0,115	1447,518	1404,505
-686,839	110,468	0,055	-0,064	1447,518	1404,505
-685,824	369,165	0,013	-0,042	1447,518	1404,505
-684,810	-127,523	0,047	-0,001	1447,518	1404,505
-683,795	88,035	0,085	0,084	1447,518	1404,505
-682,781	-59,173	0,185	0,027	1447,518	1404,505
-681,766	-49,933	0,211	-0,038	1447,518	1404,505
-680,751	-3,410	0,104	-0,040	1447,518	1404,505
-679,737	541,955	-0,038	-0,177	1447,518	1404,505
-678,722	72,399	0,221	-0,194	1447,518	1404,505
-677,708	335,894	-0,078	-0,239	1447,518	1404,505
-676,693	45,405	0,108	0,074	1447,518	1404,505
-675,678	-200,000	-0,006	0,330	1447,518	1404,505
-674,664	339,979	-0,116	0,360	1447,518	1404,505
-673,649	-200,000	-0,018	0,302	1447,518	1404,505
-672,635	176,515	0,074	-0,127	1447,518	1404,505
-671,620	403,648	0,008	-0,028	1447,518	1404,505
-670,605	81,425	0,096	0,090	1447,518	1404,505
-669,591	266,136	0,063	-0,156	1447,518	1404,505
-668,576	-2,872	0,355	0,139	1447,518	1404,505
-667,562	221,284	-0,108	-0,225	1447,518	1404,505
-666,547	-44,252	0,112	0,022	1447,518	1404,505
-665,532	48,598	0,024	-0,017	1447,518	1404,505
-664,518	35,644	0,084	0,052	1447,518	1404,505
-663,503	-89,148	0,116	0,008	1447,518	1404,505
-662,489	398,487	-0,061	-0,216	1447,518	1404,505
-661,474	144,652	-0,129	-0,186	1447,518	1404,505
-660,459	60,774	-0,196	0,155	1447,518	1404,505
-659,445	194,551	0,040	-0,075	1447,518	1404,505
-658,430	-66,124	0,213	-0,027	1447,518	1404,505
-657,416	550,792	-0,114	-0,536	1447,518	1404,505
-656,401	46,945	-0,052	0,036	1447,518	1404,505
-655,386	525,754	0,051	0,231	1447,518	1404,505
-654,372	108,399	-0,314	0,361	1447,518	1404,505
-653,357	40,549	-0,121	-0,079	1447,518	1404,505
-652,343	184,019	0,142	-0,251	1447,518	1404,505
-651,328	99,648	-0,252	-0,272	1447,518	1404,505
-650,314	109,667	-0,251	-0,291	1447,518	1404,505
-649,299	407,180	-0,046	0,166	1447,518	1404,505
-648,284	108,805	-0,186	0,215	1447,518	1404,505
-647,270	88,871	-0,135	-0,135	1447,518	1404,505
-646,255	115,978	0,153	0,185	1447,518	1404,505
-645,241	196,847	0,145	-0,274	1447,518	1404,505
-644,226	-200,000	0,004	-0,155	1447,518	1404,505
-643,211	489,993	0,043	0,182	1447,518	1404,505
-642,197	36,432	0,114	0,071	1447,518	1404,505
-641,182	459,342	-0,036	0,145	1447,518	1404,505
-640,168	52,892	-0,237	0,175	1447,518	1404,505
-639,153	154,355	0,181	-0,276	1447,518	1404,505
-638,138	249,581	-0,097	-0,226	1447,518	1404,505
-637,124	48,371	-0,383	-0,270	1447,518	1404,505
-636,109	138,583	0,053	0,074	1447,518	1404,505
-635,095	17,526	-0,134	-0,068	1447,518	1404,505
-634,080	-12,833	0,155	-0,053	1447,518	1404,505
-633,065	-21,170	-0,326	-0,098	1447,518	1404,505
-632,051	-42,608	-0,291	0,060	1447,518	1404,505
-631,036	-42,889	0,529	0,109	1447,518	1404,505
-630,022	48,889	0,082	0,058	1447,518	1404,505
-629,007	305,093	-0,143	0,400	1447,518	1404,505
-627,992	87,027	-0,118	0,116	1447,518	1404,505
-626,978	330,412	-0,128	-0,385	1447,518	1404,505
-625,963	193,628	-0,146	-0,270	1447,518	1404,505
-624,949	800,000	0,060	-0,434	1447,518	1404,505
-623,934	-117,936	0,072	0,002	1447,518	1404,505
-622,919	-19,338	-0,233	0,072	1447,518	1404,505
-621,905	226,342	-0,061	0,129	1447,518	1404,505
-620,890	273,222	0,069	0,175	1447,518	1404,505
-619,876	324,250	0,022	-0,065	1447,518	1404,505
-618,861	39,768	0,093	0,060	1447,518	1404,505
-617,846	-82,678	-0,298	-0,025	1447,518	1404,505
-616,832	71,594	0,056	-0,048	1447,518	1404,505
-615,817	36,637	0,178	-0,112	1447,518	1404,505
-614,803	-39,343	-0,243	-0,053	1447,518	1404,505
-613,788	648,294	0,041	0,220	1447,518	1404,505
-612,773	800,000	-0,002	0,022	1447,518	1404,505
-611,759	800,000	-0,022	0,281	1447,518	1404,505
-610,744	-28,043	0,019	0,005	1447,518	1404,505
-609,730	45,092	-0,101	0,069	1447,518	1404,505
-608,715	-35,265	-0,111	-0,026	1447,518	1404,505
-607,701	-56,259	0,143	0,023	1447,518	1404,505
-606,686	-200,000	0,026	0,600	1447,518	1404,505
-605,671	-4,215	-0,227	0,087	1447,518	1404,505
-604,657	-99,898	-0,245	-0,012	1447,518	1404,505
-603,642	480,851	0,020	0,084	1447,518	1404,505
-602,628	214,302	-0,077	-0,156	1447,518	1404,505
-601,613	285,479	0,109	0,287	1447,518	1404,505
-600,598	9,949	-0,264	0,122	1447,518	1404,505
-599,584	118,648	0,294	-0,362	1447,518	1404,505
-598,569	800,000	0,022	0,190	1447,518	1404,505
-597,555	538,619	0,084	0,387	1447,518	1404,505
-596,540	-82,159	0,117	0,010	1447,518	1404,505
-595,525	-10,454	-0,060	-0,021	1447,518	1404,505
-594,511	127,497	-0,227	-0,296	1447,518	1404,505
-593,496	800,000	0,020	0,244	1447,518	1404,505
-592,482	373,783	-0,077	0,259	1447,518	1404,505
-591,467	179,247	-0,090	0,156	1447,518	1404,505
-590,452	576,248	0,028	0,137	1447,518	1404,505
-589,438	692,350	0,025	0,141	1447,518	1404,505
-588,423	638,039	-0,038	0,198	1447,518	1404,505
-587,409	-123,746	0,085	0,002	1447,518	1404,505
-586,394	-200,000	-0,013	-0,313	1447,518	1404,505
-585,379	137,940	-0,157	-0,218	1447,518	1404,505
-584,365	-54,180	-0,149	-0,025	1447,518	1404,505
-583,350	-5,517	-0,179	-0,068	1447,518	1404,505
-582,336	14,261	0,037	0,018	1447,518	1404,505
-581,321	10,134	-0,100	0,046	1447,518	1404,505
-580,306	85,064	-0,226	-0,219	1447,518	1404,505
-579,292	281,915	-0,118	-0,309	1447,518	1404,505
-578,277	263,993	-0,039	-0,096	1447,518	1404,505
-577,263	80,348	0,258	-0,241	1447,518	1404,505
-576,248	-113,285	0,624	0,019	1447,518	1404,505
-575,233	73,149	0,112	0,099	1447,518	1404,505
-574,219	75,994	-0,096	0,086	1447,518	1404,505
-573,204	25,140	-0,112	0,062	1447,518	1404,505
-572,190	421,757	0,065	0,243	1447,518	1404,505
-571,175	66,332	-0,179	-0,149	1447,518	1404,505
-570,161	546,483	-0,055	-0,258	1447,518	1404,505
-569,146	162,808	-0,246	0,393	1447,518	1404,505
-568,131	159,916	-0,066	0,104	1447,518	1404,505
-567,117	198,546	0,077	0,146	1447,518	1404,505
-566,102	800,000	-0,022	0,162	1447,518	1404,505
-565,088	13,271	0,200	-0,096	1447,518	1404,505
-564,073	47,180	0,161	0,113	1447,518	1404,505
-563,058	-25,549	0,173	-0,048	1447,518	1404,505
-562,044	194,576	-0,050	0,092	1447,518	1404,505
-561,029	440,021	-0,086	-0,333	1447,518	1404,505
-560,015	800,000	0,046	-0,385	1447,518	1404,505
-559,000	721,950	-0,024	0,140	1447,518	1404,505
-557,985	-34,401	0,336	-0,081	1447,518	1404,505
-556,971	130,577	0,178	0,237	1447,518	1404,505
-555,956	-43,900	0,038	-0,008	1447,518	1404,505
-554,942	42,677	-0,158	-0,105	1447,518	1404,505
-553,927	250,998	-0,048	0,113	1447,518	1404,505
-552,912	21,137	-0,027	0,014	1447,518	1404,505
-551,898	42,346	-0,174	0,116	1447,518	1404,505
-550,883	226,356	-0,052	0,111	1447,518	1404,505
-549,869	227,613	-0,044	-0,095	1447,518	1404,505
-548,854	364,041	0,074	0,244	1447,518	1404,505
-547,839	223,983	0,060	0,128	1447,518	1404,505
-546,825	241,214	-0,115	-0,259	1447,518	1404,505
-545,810	-53,787	0,325	0,054	1447,518	1404,505
-544,796	82,350	-0,173	0,164	1447,518	1404,505
-543,781	39,063	-0,224	-0,144	1447,518	1404,505
-542,766	-200,000	-0,009	0,423	1447,518	1404,505
-541,752	667,565	0,038	0,205	1447,518	1404,505
-540,737	-32,094	0,243	-0,061	1447,518	1404,505
-539,723	172,320	-0,047	-0,079	1447,518	1404,505
-538,708	228,354	-0,022	-0,047	1447,518	1404,505
-537,693	-6,616	-0,273	-0,101	1447,518	1404,505
-536,679	518,154	-0,058	0,258	1447,518	1404,505
-535,664	36,785	0,300	0,189	1447,518	1404,505
-534,650	-32,748	-0,267	0,066	1447,518	1404,505
-533,635	256,706	-0,088	0,211	1447,518	1404,505
-532,621	-29,506	0,364	-0,095	1447,518	1404,505
-531,606	18,484	-0,113	-0,058	1447,518	1404,505
-530,591	39,213	-0,131	0,084	1447,518	1404,505
-529,577	116,683	-0,200	0,243	1447,518	1404,505
-528,562	-7,993	0,328	0,120	1447,518	1404,505
-527,548	54,595	-0,189	-0,141	1447,518	1404,505
-526,533	164,943	0,099	0,159	1447,518	1404,505
-525,518	34,904	-0,218	0,134	1447,518	1404,505
-524,504	-82,167	0,171	-0,014	1447,518	1404,505
-523,489	68,333	0,063	-0,053	1447,518	1404,505
-522,475	54,008	-0,105	-0,078	1447,518	1404,505
-521,460	34,812	0,258	0,159	1447,518	1404,505
-520,445	86,662	-0,165	-0,162	1447,518	1404,505
-519,431	-38,422	-0,141	0,031	1447,518	1404,505
-518,416	111,327	-0,148	0,174	1447,518	1404,505
-517,402	435,711	-0,094	-0,363	1447,518	1404,505
-516,387	-62,946	0,044	0,006	1447,518	1404,505
-515,372	-200,000	-0,001	0,085	1447,518	1404,505
-514,358	270,414	-0,055	-0,139	1447,518	1404,505
-513,343	-200,000	-0,022	0,357	1447,518	1404,505
-512,329	80,252	-0,248	-0,231	1447,518	1404,505
-511,314	-14,367	-0,043	0,014	1447,518	1404,505
-510,299	266,909	0,159	-0,395	1447,518	1404,505
-509,285	-45,874	-0,122	0,024	1447,518	1404,505
-508,270	101,503	0,116	-0,127	1447,518	1404,505
-507,256	800,000	0,036	0,256	1447,518	1404,505
-506,241	-48,048	-0,151	0,028	1447,518	1404,505
-505,226	112,710	0,297	-0,352	1447,518	1404,505
-504,212	37,386	-0,265	-0,168	1447,518	1404,505
-503,197	-200,000	0,010	-0,289	1447,518	1404,505
-502,183	800,000	-0,009	-0,124	1447,518	1404,505
-501,168	458,776	0,089	-0,357	1447,518	1404,505
-500,153	17,152	-0,145	0,073	1447,518	1404,505
-499,139	-8,141	0,244	-0,089	1447,518	1404,505
-498,124	302,844	0,074	-0,206	1447,518	1404,505
-497,110	71,758	0,139	-0,121	1447,518	1404,505
-496,095	10,003	-0,126	-0,058	1447,518	1404,505
-495,081	148,265	-0,089	-0,131	1447,518	1404,505
-494,066	-28,039	0,165	0,044	1447,518	1404,505
-493,051	199,973	-0,041	0,079	1447,518	1404,505
-492,037	119,912	-0,130	0,161	1447,518	1404,505
-491,022	-47,295	-0,382	0,072	1447,518	1404,505
-490,008	13,293	0,121	-0,058	1447,518	1404,505
-488,993	-27,430	-0,222	-0,060	1447,518	1404,505
-487,978	247,802	0,118	-0,273	1447,518	1404,505
-486,964	47,168	0,222	0,155	1447,518	1404,505
-485,949	345,167	-0,045	0,141	1447,518	1404,505
-484,935	75,949	-0,218	-0,197	1447,518	1404,505
-483,920	-16,118	0,198	-0,064	1447,518	1404,505
-482,905	110,226	0,131	-0,153	1447,518	1404,505
-481,891	43,917	0,373	-0,252	1447,518	1404,505
-480,876	-165,877	0,134	0,000	1447,518	1404,505
-479,862	-88,574	0,069	0,005	1447,518	1404,505
-478,847	73,622	0,091	0,080	1447,518	1404,505
-477,832	128,459	0,182	-0,239	1447,518	1404,505
-476,818	54,566	-0,098	-0,074	1447,518	1404,505
-475,803	172,036	-0,049	0,083	1447,518	1404,505
-474,789	242,844	0,050	-0,114	1447,518	1404,505
-473,774	-200,000	0,003	-0,113	1447,518	1404,505
-472,759	275,110	0,092	-0,234	1447,518	1404,505
-471,745	160,702	0,042	0,067	1447,518	1404,505
-470,730	800,000	-0,015	-0,117	1447,518	1404,505
-469,716	348,121	-0,111	-0,351	1447,518	1404,505
-468,701	-149,497	-0,169	-0,001	1447,518	1404,505
-467,686	164,809	0,021	0,034	1447,518	1404,505
-466,672	204,725	0,103	-0,202	1447,518	1404,505
-465,657	303,881	0,023	0,065	1447,518	1404,505
-464,643	186,565	-0,064	0,115	1447,518	1404,505
-463,628	18,489	0,153	0,079	1447,518	1404,505
-462,613	521,322	-0,031	-0,137	1447,518	1404,505
-461,599	-4,167	-0,057	-0,022	1447,518	1404,505
-460,584	9,691	0,392	-0,181	1447,518	1404,505
-459,570	-200,000	0,005	0,347	1447,518	1404,505
-458,555	152,745	0,138	0,209	1447,518	1404,505
-457,540	172,987	-0,233	0,391	1447,518	1404,505
-456,526	440,623	0,043	0,166	1447,518	1404,505
-455,511	220,931	-0,020	-0,041	1447,518	1404,505
-454,497	152,979	-0,159	-0,240	1447,518	1404,505
-453,482	800,000	0,030	0,229	1447,518	1404,505
-452,468	12,045	0,231	-0,110	1447,518	1404,505
-451,453	508,013	0,099	-0,434	1447,518	1404,505
-450,438	89,674	0,138	0,139	1447,518	1404,505
-449,424	294,224	0,001	-0,004	1447,518	1404,505
-448,409	-200,000	0,000	-0,173	1447,518	1404,505
-447,395	270,602	0,128	-0,321	1447,518	1404,505
-446,380	25,958	-0,270	0,151	1447,518	1404,505
-445,365	145,929	0,044	0,064	1447,518	1404,505
-444,351	-85,465	-0,185	0,014	1447,518	1404,505
-443,336	211,324	0,073	-0,147	1447,518	1404,505
-442,322	-101,684	0,234	0,011	1447,518	1404,505
-441,307	-37,102	0,285	-0,065	1447,518	1404,505
-440,292	142,540	-0,062	-0,089	1447,518	1404,505
-439,278	6,299	-0,147	-0,065	1447,518	1404,505
-438,263	-121,797	0,282	-0,006	1447,518	1404,505
-437,249	-95,277	-0,289	0,017	1447,518	1404,505
-436,234	24,640	0,359	0,197	1447,518	1404,505
-435,219	326,533	0,074	-0,221	1447,518	1404,505
-434,205	-105,026	-0,387	-0,016	1447,518	1404,505
-433,190	22,108	0,171	0,091	1447,518	1404,505
-432,176	800,000	-0,003	0,038	1447,518	1404,505
-431,161	96,489	-0,166	-0,175	1447,518	1404,505
-430,146	800,000	0,032	0,267	1447,518	1404,505
-429,132	192,178	0,191	0,352	1447,518	1404,505
-428,117	337,000	0,092	0,281	1447,518	1404,505
-427,103	85,663	0,219	0,214	1447,518	1404,505
-426,088	576,639	-0,040	-0,195	1447,518	1404,505
-425,073	263,843	-0,015	-0,037	1447,518	1404,505
-424,059	-2,097	0,245	-0,097	1447,518	1404,505
-423,044	336,772	0,092	0,281	1447,518	1404,505
-422,030	0,530	0,181	-0,074	1447,518	1404,505
-421,015	-30,406	-0,388	0,100	1447,518	1404,505
-420,000	242,301	-0,083	-0,189	1447,518	1404,505
-418,986	-200,000	-0,003	0,073	1447,518	1404,505
-417,971	299,502	-0,052	-0,143	1447,518	1404,505
-416,957	-24,394	-0,264	0,075	1447,518	1404,505
-415,942	800,000	-0,033	0,272	1447,518	1404,505
-414,928	102,086	-0,283	0,311	1447,518	1404,505
-413,913	122,138	-0,045	0,056	1447,518	1404,505
-412,898	-70,117	-0,505	0,058	1447,518	1404,505
-411,884	108,587	0,250	0,288	1447,518	1404,505
-410,869	201,282	-0,130	0,250	1447,518	1404,505
-409,855	800,000	0,009	-0,131	1447,518	1404,505
-408,840	213,427	-0,135	0,273	1447,518	1404,505
-407,825	1,874	-0,345	-0,144	1447,518	1404,505
-406,811	-200,000	0,002	-0,249	1447,518	1404,505
-405,796	73,628	0,023	0,021	1447,518	1404,505
-404,782	82,518	0,138	0,131	1447,518	1404,505
-403,767	178,161	0,055	0,095	1447,518	1404,505
-402,752	800,000	-0,009	-0,107	1447,518	1404,505
-401,738	83,754	-0,175	0,168	1447,518	1404,505
-400,723	257,943	0,116	-0,278	1447,518	1404,505
-399,709	-62,068	-0,248	0,034	1447,518	1404,505
-398,694	188,041	-0,255	-0,461	1447,518	1404,505
-397,679	-200,000	-0,006	-0,262	1447,518	1404,505
-396,665	16,011	-0,095	-0,048	1447,518	1404,505
-395,650	59,163	0,233	-0,181	1447,518	1404,505
-394,636	133,567	-0,048	0,065	1447,518	1404,505
-393,621	800,000	0,024	0,262	1447,518	1404,505
-392,606	277,536	0,085	0,219	1447,518	1404,505
-391,592	2,507	0,209	-0,088	1447,518	1404,505
-390,577	-82,437	-0,245	-0,020	1447,518	1404,505
-389,563	-31,061	0,170	-0,043	1447,518	1404,505
-388,548	197,292	0,094	0,177	1447,518	1404,505
-387,533	-109,277	0,258	0,009	1447,518	1404,505
-386,519	177,717	-0,113	0,194	1447,518	1404,505
-385,504	174,879	-0,253	-0,428	1447,518	1404,505
-384,490	203,271	0,134	-0,259	1447,518	1404,505
-383,475	40,257	-0,417	0,271	1447,518	1404,505
-382,460	456,513	-0,074	0,299	1447,518	1404,505
-381,446	-16,275	-0,317	0,102	1447,518	1404,505
-380,431	-8,871	-0,102	-0,037	1447,518	1404,505
-379,417	119,522	0,064	0,079	1447,518	1404,505
-378,402	179,161	0,044	-0,076	1447,518	1404,505
-377,388	43,330	0,086	0,058	1447,518	1404,505
-376,373	215,282	0,172	-0,350	1447,518	1404,505
-375,358	-17,624	0,084	0,027	1447,518	1404,505
-374,344	192,941	-0,093	0,172	1447,518	1404,505
-373,329	171,152	0,130	0,216	1447,518	1404,505
-372,315	800,000	-0,008	0,110	1447,518	1404,505
-371,300	261,360	0,104	0,254	1447,518	1404,505
-370,285	-44,635	0,256	0,051	1447,518	1404,505
-369,271	339,778	-0,095	0,293	1447,518	1404,505
-368,256	32,069	-0,099	-0,059	1447,518	1404,505
-367,242	171,654	0,056	-0,094	1447,518	1404,505
-366,227	496,867	-0,061	0,263	1447,518	1404,505
-365,212	-26,986	0,323	0,088	1447,518	1404,505
-364,198	25,610	-0,181	0,101	1447,518	1404,505
-363,183	-24,728	0,133	0,038	1447,518	1404,505
-362,169	165,646	0,121	0,195	1447,518	1404,505
-361,154	431,955	0,062	-0,236	1447,518	1404,505
-360,139	-37,331	-0,370	0,084	1447,518	1404,505
-359,125	-88,257	0,382	0,027	1447,518	1404,505
-358,110	508,379	-0,082	0,361	1447,518	1404,505
-357,096	42,274	-0,316	0,210	1447,518	1404,505
-356,081	126,474	0,068	-0,088	1447,518	1404,505
-355,066	-23,416	-0,173	0,050	1447,518	1404,505
-354,052	-136,866	0,160	-0,002	1447,518	1404,505
-353,037	800,000	0,049	-0,375	1447,518	1404,505
-352,023	86,364	0,142	0,139	1447,518	1404,505
-351,008	11,940	0,141	0,067	1447,518	1404,505
-349,993	150,302	-0,114	0,170	1447,518	1404,505
-348,979	234,073	-0,129	0,283	1447,518	1404,505
-347,964	32,001	0,196	-0,117	1447,518	1404,505
-346,950	220,524	0,065	-0,135	1447,518	1404,505
-345,935	33,584	-0,041	0,025	1447,518	1404,505
-344,920	-69,570	0,082	0,010	1447,518	1404,505
-343,906	641,343	-0,055	-0,291	1447,518	1404,505
-342,891	100,186	0,239	0,260	1447,518	1404,505
-341,877	221,989	-0,072	0,151	1447,518	1404,505
-340,862	-98,478	-0,257	-0,013	1447,518	1404,505
-339,848	38,443	-0,245	-0,156	1447,518	1404,505
-338,833	279,019	0,091	0,235	1447,518	1404,505
-337,818	800,000	-0,025	0,230	1447,518	1404,505
-336,804	-200,000	-0,009	-0,241	1447,518	1404,505
-335,789	-9,902	0,128	0,045	1447,518	1404,505
-334,775	109,712	-0,087	0,101	1447,518	1404,505
-333,760	-13,913	-0,047	-0,016	1447,518	1404,505
-332,745	58,173	0,196	0,151	1447,518	1404,505
-331,731	41,844	-0,291	-0,193	1447,518	1404,505
-330,716	-42,285	-0,160	-0,033	1447,518	1404,505
-329,702	294,054	0,054	-0,147	1447,518	1404,505
-328,687	108,902	-0,065	-0,076	1447,518	1404,505
-327,672	285,859	0,003	-0,008	1447,518	1404,505
-326,658	354,616	-0,058	0,187	1447,518	1404,505
-325,643	-51,216	-0,393	-0,069	1447,518	1404,505
-324,629	126,215	-0,074	-0,095	1447,518	1404,505
-323,614	800,000	0,032	0,378	1447,518	1404,505
-322,599	-43,146	0,135	-0,028	1447,518	1404,505
-321,585	677,950	-0,040	0,223	1447,518	1404,505
-320,570	145,352	0,131	0,190	1447,518	1404,505
-319,556	-13,660	0,118	-0,040	1447,518	1404,505
-318,541	-127,963	-0,047	0,001	1447,518	1404,505
-317,526	129,598	0,215	-0,283	1447,518	1404,505
-316,512	800,000	0,011	-0,105	1447,518	1404,505
-315,497	186,544	0,031	-0,056	1447,518	1404,505
-314,483	-25,476	0,195	-0,055	1447,518	1404,505
-313,468	42,077	-0,080	-0,053	1447,518	1404,505
-312,453	370,462	0,029	-0,098	1447,518	1404,505
-311,439	51,260	0,069	-0,050	1447,518	1404,505
-310,424	800,000	0,006	-0,059	1447,518	1404,505
-309,410	5,724	-0,130	0,057	1447,518	1404,505
-308,395	47,389	-0,225	0,157	1447,518	1404,505
-307,380	-200,000	0,000	0,034	1447,518	1404,505
-306,366	181,709	0,244	-0,428	1447,518	1404,505
-305,351	800,000	0,040	-0,360	1447,518	1404,505
-304,337	179,155	-0,235	-0,407	1447,518	1404,505
-303,322	-70,486	0,104	0,012	1447,518	1404,505
-302,307	-20,663	-0,192	0,058	1447,518	1404,505
-301,293	294,450	0,050	-0,137	1447,518	1404,505
-300,278	120,478	-0,068	0,085	1447,518	1404,505
-299,264	-61,361	0,076	-0,011	1447,518	1404,505
-298,249	47,338	-0,207	-0,145	1447,518	1404,505
-297,235	188,549	0,146	0,265	1447,518	1404,505
-296,220	6,635	-0,053	0,024	1447,518	1404,505
-295,205	64,638	0,038	-0,031	1447,518	1404,505
-294,191	-60,763	-0,225	0,032	1447,518	1404,505
-293,176	-4,319	-0,181	0,069	1447,518	1404,505
-292,162	800,000	0,017	0,157	1447,518	1404,505
-291,147	19,115	0,501	-0,259	1447,518	1404,505
-290,132	624,994	-0,028	-0,143	1447,518	1404,505
-289,118	103,405	0,073	-0,081	1447,518	1404,505
-288,103	153,873	-0,037	-0,056	1447,518	1404,505
-287,089	1,631	-0,093	0,039	1447,518	1404,505
-286,074	449,237	-0,095	0,377	1447,518	1404,505
-285,059	572,538	0,058	0,280	1447,518	1404,505
-284,045	195,209	-0,027	-0,050	1447,518	1404,505
-283,030	660,058	-0,060	0,326	1447,518	1404,505
-282,016	800,000	0,017	0,270	1447,518	1404,505
-281,001	417,470	0,040	-0,150	1447,518	1404,505
-279,986	29,160	-0,244	-0,141	1447,518	1404,505
-278,972	90,192	-0,158	0,159	1447,518	1404,505
-277,957	234,896	0,087	-0,191	1447,518	1404,505
-276,943	44,697	0,371	-0,253	1447,518	1404,505
-275,928	-12,253	0,016	0,005	1447,518	1404,505
-274,913	108,494	0,080	0,092	1447,518	1404,505
-273,899	-50,865	0,545	-0,096	1447,518	1404,505
-272,884	800,000	0,020	-0,269	1447,518	1404,505
-271,870	608,065	-0,055	0,280	1447,518	1404,505
-270,855	214,500	0,088	-0,178	1447,518	1404,505
-269,840	700,241	0,014	-0,077	1447,518	1404,505
-268,826	-34,726	0,379	0,091	1447,518	1404,505
-267,811	10,054	0,129	-0,060	1447,518	1404,505
-266,797	0,915	0,119	-0,049	1447,518	1404,505
-265,782	-2,754	0,220	0,086	1447,518	1404,505
-264,767	82,435	0,283	0,269	1447,518	1404,505
-263,753	39,663	-0,281	0,182	1447,518	1404,505
-262,738	-200,000	0,002	-0,252	1447,518	1404,505
-261,724	127,895	-0,093	0,121	1447,518	1404,505
-260,709	114,957	0,110	0,132	1447,518	1404,505
-259,695	-51,150	-0,147	0,026	1447,518	1404,505
-258,680	36,490	-0,061	0,038	1447,518	1404,505
-257,665	410,835	-0,129	-0,471	1447,518	1404,505
-256,651	365,777	0,019	-0,062	1447,518	1404,505
-255,636	323,773	0,070	0,208	1447,518	1404,505
-254,622	-4,056	-0,468	-0,180	1447,518	1404,505
-253,607	-21,911	-0,146	-0,043	1447,518	1404,505
-252,592	512,075	-0,083	-0,369	1447,518	1404,505
-251,578	25,943	0,370	0,206	1447,518	1404,505
-250,563	-57,530	0,181	0,028	1447,518	1404,505
-249,549	111,554	-0,114	0,133	1437,905	1404,487
-248,534	197,405	-0,069	0,119	1221,126	1288,666
-247,519	2,363	-0,114	0,079	-0,743	-0,436
-246,505	-103,548	0,160	0,062	-0,666	-0,072
-245,490	412,821	0,336	-0,154	-0,111	0,865
-244,476	734,508	0,179	-0,156	0,321	2,092
-243,461	153,587	-0,127	0,178	0,601	0,632
-242,446	800,000	0,025	-0,246	5,694	4,845
-241,432	-60,380	0,157	-0,024	31,316	28,521
-240,417	800,000	0,008	-0,062	224,298	214,835
-239,403	24,497	0,097	-0,053	1024,296	990,929
-238,388	67,820	0,110	-0,108	1614,772	1337,623
-237,373	54,892	0,080	-0,082	1146,892	807,358
-236,359	124,830	0,082	0,144	823,627	582,722
-235,344	-90,100	0,342	0,032	822,923	581,209
-234,330	274,877	-0,104	-0,365	822,984	581,139
-233,315	-20,494	0,044	0,018	823,357	581,204
-232,300	-51,036	0,254	0,061	823,709	581,543
-231,286	-100,527	-0,145	-0,010	824,220	581,536
-230,271	279,087	-0,101	-0,358	824,722	581,787
-229,257	-37,439	0,139	-0,043	825,594	582,657
-228,242	-13,142	0,118	0,055	825,795	583,064
-227,227	59,186	-0,246	-0,264	826,309	583,568
-226,213	-58,028	-0,193	0,040	826,883	583,578
-225,198	5,163	-0,133	0,080	827,228	583,625
-224,184	681,021	-0,001	0,007	827,537	584,666
-223,169	320,800	-0,018	0,074	828,059	584,646
-222,155	561,509	-0,030	0,194	828,598	584,977
-221,140	129,140	-0,029	0,053	828,936	585,933
-220,125	800,000	0,028	-0,358	829,194	586,322
-219,111	325,557	-0,048	0,197	830,003	586,656
-218,096	94,980	-0,086	-0,123	830,562	587,061
-217,082	207,288	-0,015	0,040	830,929	587,222
-216,067	-58,618	0,069	-0,014	831,386	587,535
-215,052	35,521	0,109	0,093	831,848	587,502
-214,038	95,604	-0,035	0,051	832,473	588,522
-213,023	363,150	0,033	0,147	832,621	588,870
-212,009	197,060	0,042	-0,108	833,017	588,787
-210,994	258,964	-0,078	0,258	833,774	589,660
-209,979	-38,890	0,183	-0,056	834,257	589,731
-208,965	120,671	-0,242	-0,415	834,698	590,282
-207,950	-71,495	-0,130	-0,020	835,789	590,337
-206,936	326,941	-0,057	-0,235	835,369	590,829
-205,921	24,975	0,266	-0,202	836,020	590,969
-204,906	31,450	0,054	-0,044	836,356	591,389
-203,892	169,114	-0,071	-0,160	836,946	591,996
-202,877	-63,615	-0,446	0,082	837,643	592,372
-201,863	-51,087	-0,173	0,042	837,976	592,602
-200,848	113,109	0,184	-0,300	838,327	593,283
-199,833	-51,793	-0,190	0,045	839,373	593,374
-198,819	261,608	0,045	0,149	839,792	593,728
-197,804	149,409	-0,142	-0,289	839,870	594,203
-196,790	111,934	0,136	0,220	840,694	594,827
-195,775	-42,005	0,099	0,028	841,104	594,869
-194,760	-132,201	0,380	0,007	841,574	595,847
-193,746	16,422	-0,180	-0,123	841,889	596,376
-192,731	-23,080	-0,172	-0,068	842,585	596,712
-191,717	-112,098	0,257	-0,011	843,263	597,723
-190,702	79,714	0,289	0,368	843,857	597,673
-189,687	145,898	-0,058	-0,116	844,561	598,669
-188,673	-18,057	0,133	0,057	845,423	598,975
-187,658	143,822	0,075	0,147	849,645	601,369
-186,644	-146,968	0,227	0,002	871,676	617,850
-185,629	-1,745	-0,136	0,074	932,771	658,854
-184,614	142,356	0,152	-0,308	984,169	671,177
-183,600	-138,393	0,110	-0,002	987,121	664,164
-182,585	53,122	0,160	0,170	987,241	663,409
-181,571	118,628	0,130	0,231	987,529	663,827
-180,556	-54,241	-0,208	0,049	988,126	664,431
-179,542	290,396	-0,042	-0,161	988,637	664,699
-178,527	213,712	0,042	0,123	989,236	665,356
-177,512	800,000	0,027	-0,331	991,326	666,946
-176,498	60,544	0,298	-0,339	999,623	673,788
-175,483	111,363	-0,242	0,407	1018,279	687,831
-174,469	-26,477	-0,280	0,111	1034,402	697,538
-173,454	-10,506	-0,067	-0,034	1037,882	697,915
-172,439	3,225	-0,158	-0,097	1038,198	698,235
-171,425	80,277	0,228	0,308	1039,391	698,932
-170,410	-10,318	-0,227	0,115	1039,612	699,103
-169,396	91,886	-0,085	-0,125	1039,890	699,815
-168,381	180,625	0,042	-0,106	1040,776	700,456
-167,366	38,112	-0,147	0,135	1041,660	701,305
-166,352	-89,744	0,409	0,040	1042,346	701,974
-165,337	130,831	-0,161	0,308	1041,571	699,767
-164,323	68,301	-0,335	-0,411	1041,940	697,710
-163,308	-40,333	0,347	-0,108	1042,863	699,614
-162,293	-52,395	-0,117	-0,029	1043,436	700,471
-161,279	55,729	-0,080	-0,088	1044,211	701,442
-160,264	5,820	-0,244	-0,155	1044,913	702,577
-159,250	-45,710	0,204	-0,057	1045,507	703,179
-158,235	-14,850	0,109	-0,052	1046,082	703,388
-157,220	-39,306	-0,208	-0,066	1046,587	704,467
-156,206	37,807	-0,208	-0,190	1047,423	705,661
-155,191	193,316	0,044	-0,118	1048,614	709,252
-154,177	-71,857	0,240	-0,038	1051,253	715,128
-153,162	-98,930	0,333	-0,024	1053,299	720,660
-152,147	16,276	-0,281	0,198	1054,732	725,104
-151,133	-132,806	-0,198	0,004	1056,779	729,500
-150,118	-23,950	-0,127	0,051	1057,987	732,354
-149,104	-66,962	-0,390	0,068	1058,455	734,480
-148,089	22,474	0,008	-0,006	1059,506	736,298
-147,074	-8,391	-0,136	0,069	1060,317	737,657
-146,060	551,148	-0,086	0,562	1060,957	738,502
-145,045	112,794	-0,034	-0,055	1061,510	739,235
-144,031	3,991	0,170	-0,102	1061,944	738,986
-143,016	39,461	-0,409	0,369	1062,354	738,991
-142,002	159,805	0,058	-0,128	1063,530	739,199
-140,987	800,000	-0,004	-0,047	1063,755	739,118
-139,972	228,982	0,041	0,123	1064,487	739,363
-138,958	-105,770	0,284	-0,016	1065,158	739,832
-137,943	-105,350	-0,161	-0,009	1065,075	740,010
-136,929	126,298	-0,103	-0,186	1066,003	740,214
-135,914	27,800	0,103	-0,082	1066,260	740,493
-134,899	167,294	-0,102	0,234	1067,389	740,896
-133,885	324,997	0,054	0,226	1067,786	741,340
-132,870	-77,325	-0,130	0,017	1067,817	741,468
-131,856	108,918	0,166	0,267	1068,603	742,017
-130,841	17,977	-0,382	0,273	1069,469	742,065
-129,826	-39,224	0,214	0,066	1069,898	742,880
-128,812	36,169	0,052	0,046	1071,355	743,717
-127,797	144,491	0,157	0,317	1072,491	744,282
-126,783	72,195	0,206	0,251	1073,081	745,275
-125,768	3,522	-0,035	-0,021	1073,678	745,982
-124,753	22,126	-0,159	0,118	1074,588	747,153
-123,739	138,189	0,036	-0,070	1075,671	748,265
-122,724	87,088	-0,136	0,186	1075,653	748,862
-121,710	9,505	0,087	0,056	1076,162	749,728
-120,695	-64,994	-0,029	-0,005	1077,278	750,355
-119,680	800,000	-0,017	-0,222	1077,629	751,464
-118,666	583,333	0,031	-0,214	1078,533	752,103
-117,651	-12,366	-0,070	0,033	1079,310	752,881
-116,637	-101,128	-0,039	0,003	1079,940	753,938
-115,622	-34,215	-0,066	0,022	1080,567	754,806
-114,607	8,642	-0,111	-0,070	1081,397	755,956
-113,593	170,160	-0,202	-0,463	1082,095	756,633
-112,578	134,520	-0,064	0,122	1082,699	756,810
-111,564	112,036	-0,118	-0,193	1083,515	757,221
-110,549	42,418	0,154	-0,143	1084,028	756,590
-109,534	-10,081	-0,234	0,115	1084,187	755,899
-108,520	62,275	0,295	-0,330	1084,610	754,844
-107,505	131,733	0,141	-0,265	1084,654	752,262
-106,491	432,031	-0,029	0,154	1083,875	749,060
-105,476	82,325	-0,052	0,069	1083,059	745,072
-104,462	-200,000	0,003	0,124	1082,780	740,299
-103,447	151,640	0,182	0,390	1081,915	735,224
-102,432	31,292	-0,102	0,087	1081,416	732,627
-101,418	57,033	-0,177	-0,194	1082,279	732,527
-100,403	43,332	0,170	0,164	1082,614	732,616
-99,389	-0,322	0,029	-0,017	1082,919	732,818
-98,374	-6,775	-0,109	0,058	1084,046	733,986
-97,359	-60,680	0,304	-0,062	1084,560	733,384
-96,345	-75,556	0,108	-0,016	1084,950	733,308
-95,330	800,000	0,004	-0,044	1085,568	733,727
-94,316	-44,672	0,263	-0,075	1085,815	733,655
-93,301	-103,658	0,258	-0,016	1087,458	736,676
-92,286	44,093	0,089	0,086	1088,903	740,098
-91,272	95,926	0,171	-0,257	1089,189	739,375
-90,257	-13,980	-0,074	0,035	1089,262	739,370
-89,243	-35,558	0,200	-0,067	1089,768	739,985
-88,228	68,775	0,083	0,101	1091,076	740,497
-87,213	356,765	0,049	0,226	1091,746	741,052
-86,199	-98,486	-0,364	0,027	1092,472	742,175
-85,184	54,505	-0,153	-0,164	1093,245	742,756
-84,170	800,000	0,005	0,073	1094,995	744,883
-83,155	43,669	-0,129	-0,124	1099,237	748,033
-82,140	9,911	-0,273	-0,180	1102,512	748,994
-81,126	238,514	0,100	-0,320	1103,278	749,523
-80,111	800,000	-0,018	-0,225	1104,361	749,920
-79,097	-88,389	0,266	0,027	1104,752	750,896
-78,082	-81,525	-0,282	0,035	1105,667	751,018
-77,067	-50,661	0,322	-0,081	1106,037	751,270
-76,053	355,618	0,045	0,205	1106,698	752,438
-75,038	105,806	0,064	-0,102	1107,020	753,546
-74,024	132,175	-0,039	-0,074	1107,607	751,753
-73,009	31,279	-0,113	-0,097	1107,093	747,448
-71,994	-48,198	0,035	-0,009	1107,246	746,969
-70,980	69,536	-0,163	-0,200	1108,650	748,747
-69,965	32,164	0,388	-0,333	1109,254	750,701
-68,951	112,758	-0,079	0,133	1110,385	754,722
-67,936	-44,003	0,134	0,038	1112,606	761,199
-66,922	95,846	0,097	-0,143	1115,301	767,492
-65,907	-58,110	-0,422	0,089	1116,768	773,878
-64,892	30,396	-0,120	0,098	1118,321	778,730
-63,878	19,064	0,090	-0,065	1120,172	782,555
-62,863	-132,807	0,346	0,006	1121,587	785,623
-61,849	577,043	-0,104	-0,700	1122,523	787,748
-60,834	-200,000	-0,030	1,536	1123,975	789,610
-59,819	800,000	0,179	-1,956	1124,375	790,644
-58,805	-14,353	-1,497	-0,686	1125,017	791,292
-57,790	800,000	0,365	-3,297	1124,908	791,135
-56,776	170,358	3,376	7,726	1125,328	791,068
-55,761	800,000	92,470	1162,272	1126,228	791,110
-54,746	153,681	1638,326	3437,248	1126,538	790,981
-53,732	58,804	3209,748	3451,304	1127,200	790,997
-52,717	50,837	3273,207	3270,213	1127,814	791,006
-51,703	29,004	2891,771	2311,622	1128,134	791,376
-50,688	22,489	2549,011	1894,764	1128,546	791,526
-49,673	19,711	2419,282	1741,855	1128,959	791,700
-48,659	19,872	2389,821	1724,701	1129,638	791,796
-47,644	21,414	2383,134	1751,007	1130,935	792,628
-46,630	19,100	2370,879	1694,310	1131,630	793,837
-45,615	18,841	2365,717	1685,966	1131,997	793,873
-44,600	18,876	2361,725	1682,592	1132,559	794,844
-43,586	18,883	2358,962	1679,422	1133,214	795,933
-42,571	18,863	2356,423	1677,108	1134,129	796,635
-41,557	18,906	2353,706	1675,920	1134,947	797,260
-40,542	18,988	2350,983	1673,815	1135,534	798,518
-39,527	18,914	2348,960	1671,058	1136,657	799,240
-38,513	19,023	2346,407	1669,648	1137,347	800,556
-37,498	18,977	2343,763	1667,195	1138,317	801,074
-36,484	19,024	2341,115	1665,433	1138,869	801,849
-35,469	19,090	2339,564	1664,693	1139,206	802,532
-34,454	18,939	2337,214	1663,107	1140,138	801,731
-33,440	18,859	2334,991	1661,519	1140,589	801,296
-32,425	18,717	2332,648	1659,802	1140,326	799,803
-31,411	18,431	2329,963	1658,501	1140,456	796,925
-30,396	18,068	2328,152	1656,927	1140,098	793,408
-29,381	17,655	2325,870	1655,557	1139,158	788,783
-28,367	17,110	2323,755	1654,105	1138,590	783,294
-27,352	16,581	2322,313	1652,410	1136,848	777,507
-26,338	16,132	2320,042	1651,121	1136,213	772,778
-25,323	15,849	2318,431	1649,198	1135,857	770,287
-24,309	15,718	2316,711	1647,953	1136,786	769,724
-23,294	15,738	2315,304	1646,458	1137,224	770,433
-22,279	15,924	2313,238	1644,806	1138,174	772,882
-21,265	16,354	2311,254	1644,234	1139,986	777,694
-20,250	16,396	2310,606	1642,879	1141,255	779,372
-19,236	16,390	2307,581	1641,401	1141,242	778,991
-18,221	16,371	2306,036	1639,720	1142,168	779,723
-17,206	16,312	2304,609	1638,568	1142,922	779,751
-16,192	16,347	2303,090	1637,102	1143,357	780,564
-15,177	16,326	2301,143	1635,469	1144,077	780,982
-14,163	16,349	2299,522	1634,377	1145,514	782,140
-13,148	16,375	2298,440	1632,919	1151,140	786,558
-12,133	16,347	2296,475	1631,917	1183,231	808,025
-11,119	15,843	2294,811	1631,130	1239,937	841,463
-10,104	15,237	2293,353	1629,049	1274,537	859,230
-9,090	15,185	2291,335	1628,112	1285,313	865,697
-8,075	15,175	2290,140	1627,211	1294,810	872,015
-7,060	15,152	2288,657	1626,758	1302,953	876,931
-6,046	15,084	2287,155	1624,737	1311,975	882,799
-5,031	15,140	2285,477	1623,655	1323,363	890,999
-4,017	16,055	2284,412	1622,472	1355,928	923,236
-3,002	20,809	2282,835	1622,476	1533,870	1103,634
-1,987	23,841	2281,591	1621,918	1988,647	1481,069
-0,973	20,559	2278,954	1619,891	2369,519	1699,792
0,042	19,830	2265,887	1614,442	2429,451	1723,988
1,056	19,922	2155,527	1537,074	2433,201	1727,065
2,071	17,404	2010,693	1391,217	2435,128	1729,476
3,086	15,065	1952,556	1314,201	2437,411	1730,594
4,100	14,781	1943,509	1303,290	2438,245	1731,653
5,115	14,790	1939,642	1300,698	2439,929	1733,042
6,129	14,704	1936,531	1297,779	2441,870	1733,727
7,144	14,774	1932,697	1295,728	2443,175	1735,434
8,159	14,705	1930,412	1293,237	2444,753	1736,390
9,173	14,775	1926,563	1291,530	2446,585	1737,980
10,188	15,096	1896,199	1276,624	2448,051	1738,300
11,202	15,631	1818,365	1231,795	2450,204	1740,289
12,217	15,529	1762,735	1193,158	2452,052	1740,860
13,231	15,327	1750,834	1181,992	2453,824	1742,475
14,246	15,365	1747,841	1180,222	2456,088	1744,503
15,261	15,384	1746,653	1179,560	2456,977	1745,318
16,275	15,372	1745,598	1177,942	2458,259	1747,333
17,290	15,373	1744,224	1177,533	2460,472	1748,153
18,304	15,360	1742,870	1176,303	2462,991	1750,146
19,319	15,435	1742,178	1176,114	2464,333	1752,251
20,334	15,467	1742,194	1177,141	2466,547	1752,977
21,348	15,211	1738,796	1171,509	2468,439	1753,928
22,363	14,955	1737,076	1166,481	2469,577	1755,149
23,377	14,985	1736,062	1166,725	2471,124	1755,477
24,392	14,985	1735,190	1166,513	2474,151	1757,069
25,407	15,071	1733,978	1166,477	2475,466	1758,642
26,421	15,197	1732,751	1167,379	2477,307	1760,024
27,436	15,193	1731,841	1166,279	2478,728	1761,681
28,450	15,176	1731,038	1165,467	2480,782	1763,182
29,465	15,209	1729,906	1165,278	2483,259	1764,786
30,480	15,281	1728,703	1165,020	2485,380	1766,971
31,494	15,434	1729,138	1167,237	2486,655	1768,223
32,509	15,949	1729,809	1174,608	2488,864	1770,246
33,523	16,416	1731,198	1182,771	2491,493	1771,145
34,538	16,842	1732,317	1189,808	2494,727	1773,052
35,553	17,180	1732,555	1195,158	2497,792	1774,628
36,567	17,408	1733,398	1198,886	2499,496	1775,973
37,582	17,639	1732,810	1201,925	2502,306	1777,720
38,596	17,815	1731,983	1203,731	2505,119	1779,890
39,611	17,862	1731,343	1203,911	2507,838	1781,886
40,626	17,963	1730,386	1204,084	2511,108	1785,108
41,640	17,971	1729,189	1203,190	2514,089	1787,469
42,655	17,957	1728,241	1202,001	2517,602	1790,472
43,669	17,986	1726,373	1200,174	2521,095	1794,357
44,684	17,958	1725,602	1198,544	2524,404	1797,765
45,699	18,279	1724,581	1197,105	2529,553	1809,354
46,713	20,115	1723,545	1195,574	2539,833	1857,384
47,728	18,645	1722,059	1195,014	2548,629	1831,369
48,742	18,779	1720,837	1193,551	2589,428	1864,564
49,757	21,703	1718,974	1192,197	2747,478	2046,771
50,771	29,278	1718,390	1190,802	3048,031	2473,877
51,786	49,631	1717,544	1189,838	3300,622	3300,336
52,801	62,015	1715,794	1189,052	3079,660	3451,241
53,815	156,537	1714,910	1187,562	1504,176	3249,908
54,830	800,000	1713,133	1186,761	83,741	1057,587
55,844	176,823	1712,057	1184,914	2,895	6,950
56,859	800,000	1710,513	1183,463	0,209	-3,146
57,874	41,119	1707,544	1181,748	-1,143	-1,052
58,888	800,000	1706,188	1180,743	-0,136	-1,840
59,903	-200,000	1704,576	1179,912	0,036	1,733
60,917	405,014	1703,465	1180,045	0,102	-0,516
61,932	8,147	1703,637	1179,690	-0,106	-0,067
62,947	157,481	1702,172	1179,268	0,123	0,266
63,961	154,742	1700,787	1178,400	-0,052	-0,112
64,976	65,088	1699,072	1177,748	-0,022	0,025
65,990	-0,372	1698,435	1177,112	0,060	0,034
67,005	-200,000	1697,341	1176,934	-0,002	0,183
68,020	39,927	1697,121	1175,882	0,136	-0,123
69,034	36,335	1695,773	1176,151	0,089	0,077
70,049	72,379	1695,483	1175,395	-0,117	-0,144
71,063	141,826	1694,436	1175,656	0,165	-0,327
72,078	169,438	1693,391	1175,485	0,076	-0,175
73,093	195,649	1692,151	1175,146	0,079	0,206
74,107	167,750	1691,241	1175,025	0,016	0,036
75,122	73,858	1690,745	1173,575	-0,249	0,308
76,136	-27,671	1689,163	1171,822	-0,067	-0,025
77,151	64,774	1688,047	1168,950	-0,028	0,032
78,166	256,183	1685,509	1165,389	0,054	-0,181
79,180	23,505	1684,001	1160,719	-0,477	-0,365
80,195	3,935	1682,135	1154,481	0,289	-0,175
81,209	-14,285	1678,986	1147,418	0,212	-0,100
82,224	42,025	1675,721	1138,727	0,136	0,128
83,239	-21,407	1671,661	1128,560	0,243	0,104
84,253	-63,223	1669,110	1121,688	0,246	0,048
85,268	68,258	1668,100	1119,175	-0,047	0,057
86,282	-77,469	1666,915	1118,726	-0,224	0,031
87,297	444,841	1665,875	1117,437	-0,025	0,142
88,312	203,423	1665,164	1116,390	-0,070	-0,195
89,326	57,831	1663,535	1114,688	0,160	-0,178
90,341	513,669	1662,233	1113,772	0,039	-0,252
91,355	24,811	1661,391	1111,561	-0,132	0,106
92,370	120,620	1660,444	1109,753	-0,071	-0,128
93,384	223,029	1660,480	1111,622	-0,020	0,062
94,399	47,381	1661,326	1115,733	0,121	-0,122
95,414	32,097	1658,955	1115,433	0,105	0,091
96,428	21,942	1657,927	1112,803	0,098	-0,076
97,443	-17,329	1657,030	1112,965	-0,020	0,009
98,457	83,323	1656,226	1111,626	0,143	0,198
99,472	131,031	1655,403	1110,693	-0,094	0,180
100,487	589,475	1654,659	1109,915	0,027	-0,193
101,501	195,135	1653,447	1109,533	-0,015	0,041
102,516	22,615	1652,780	1110,496	0,060	-0,047
103,530	-37,873	1650,410	1110,275	0,091	-0,030
104,545	-62,351	1648,081	1107,305	-0,117	0,023
105,560	-17,592	1645,705	1104,229	0,191	-0,087
106,574	0,353	1644,653	1103,350	0,066	-0,039
107,589	339,987	1643,285	1102,641	-0,026	-0,116
108,603	48,678	1642,199	1101,008	0,156	0,159
109,618	-86,671	1641,363	1100,376	0,105	0,011
110,633	-27,799	1640,025	1099,708	-0,250	0,097
111,647	-21,545	1639,634	1100,906	0,305	0,131
112,662	180,300	1637,752	1098,419	0,088	0,221
113,676	14,030	1635,425	1090,565	0,196	0,139
114,691	47,216	1633,051	1086,586	-0,269	0,273
115,706	-94,472	1632,229	1086,769	0,256	-0,022
116,720	121,936	1632,897	1087,819	-0,147	-0,269
117,735	90,444	1631,846	1090,066	-0,166	0,243
118,749	-42,226	1632,393	1096,499	0,118	-0,036
119,764	-83,987	1633,766	1104,809	-0,320	-0,037
120,779	14,298	1634,869	1112,291	-0,165	0,115
121,793	55,544	1635,445	1118,350	-0,149	-0,159
122,808	85,881	1635,928	1122,887	-0,075	0,103
123,822	-200,000	1635,448	1126,245	0,002	-0,082
124,837	3,260	1635,280	1128,273	-0,227	0,135
125,852	-17,709	1634,869	1129,503	0,280	0,124
126,866	-38,114	1634,090	1129,481	0,085	0,027
127,881	74,258	1632,902	1129,032	0,159	0,199
128,895	253,293	1631,112	1127,594	0,033	0,111
129,910	18,332	1630,052	1125,742	-0,357	-0,257
130,924	138,412	1628,892	1124,392	-0,075	-0,146
131,939	-59,697	1626,949	1122,187	-0,302	0,062
132,954	0,414	1625,960	1121,244	0,113	0,065
133,968	58,875	1624,783	1119,401	0,086	0,094
134,983	7,641	1623,544	1118,278	-0,383	0,242
135,997	23,953	1622,624	1116,919	-0,241	0,186
137,012	1,011	1621,017	1115,928	0,231	0,135
138,027	-40,574	1619,521	1114,343	0,409	-0,124
139,041	271,566	1617,599	1113,065	-0,030	0,107
140,056	150,236	1615,813	1111,178	-0,116	0,243
141,070	78,304	1614,270	1111,025	0,130	0,168
142,085	225,241	1612,718	1109,969	-0,025	-0,076
143,100	-58,014	1612,586	1109,408	0,237	0,051
144,114	-7,204	1611,469	1109,118	0,199	-0,103
145,129	61,631	1610,451	1108,869	-0,133	0,150
146,143	316,354	1609,070	1109,361	-0,060	0,246
147,158	-17,362	1607,860	1109,022	0,198	-0,088
148,173	37,251	1607,575	1108,968	0,068	-0,060
149,187	168,602	1606,325	1108,925	-0,112	0,259
150,202	-27,917	1605,102	1108,310	-0,087	-0,033
151,216	60,805	1605,281	1107,287	-0,179	0,199
152,231	106,367	1603,364	1105,948	0,136	0,216
153,246	-33,312	1601,717	1103,290	0,146	-0,050
154,260	-200,000	1599,825	1100,224	-0,002	0,147
155,275	-56,937	1598,226	1095,440	-0,125	0,028
156,289	134,713	1595,677	1090,559	-0,145	0,281
157,304	-52,251	1593,086	1083,586	0,202	0,049
158,319	93,664	1588,633	1074,061	-0,146	0,216
159,333	54,665	1585,790	1064,253	-0,338	-0,366
160,348	106,536	1582,596	1055,577	-0,193	0,319
161,362	217,373	1580,737	1049,111	-0,041	0,123
162,377	171,603	1578,866	1046,142	-0,064	0,156
163,392	38,004	1577,019	1044,694	0,119	0,111
164,406	800,000	1577,012	1044,740	-0,033	-0,335
165,421	-200,000	1577,758	1050,906	0,005	-0,149
166,435	-47,007	1576,652	1053,333	0,219	0,060
167,450	24,402	1576,203	1050,858	-0,054	0,043
168,464	6,882	1575,243	1050,238	0,167	0,108
169,479	92,108	1574,334	1049,372	0,247	0,369
170,494	161,143	1572,903	1048,317	0,064	0,148
171,508	7,226	1572,152	1048,296	0,071	-0,046
172,523	-143,666	1570,885	1047,042	-0,180	-0,002
173,537	14,918	1554,624	1040,875	-0,079	0,057
174,552	42,054	1442,434	976,755	-0,266	0,253
175,567	30,564	1310,378	886,224	0,055	0,046
176,581	20,040	1261,290	846,845	-0,113	0,085
177,596	-68,364	1253,123	841,930	0,156	-0,027
178,610	33,152	1251,340	840,187	-0,269	0,235
179,625	43,752	1250,306	839,393	0,121	0,118
180,640	-200,000	1249,419	839,100	0,008	-0,269
181,654	39,134	1248,751	838,705	-0,084	-0,078
182,669	23,422	1248,736	839,224	-0,180	0,141
183,683	-90,096	1248,455	854,911	0,214	0,020
184,698	-63,889	1099,150	800,482	-0,145	0,026
185,713	87,398	901,100	648,717	0,112	0,150
186,727	30,684	830,181	586,354	-0,403	0,326
187,742	103,320	820,767	580,835	-0,188	0,287
188,756	94,805	818,859	579,752	-0,237	0,339
189,771	800,000	817,922	578,895	0,012	-0,162
190,786	176,807	816,981	578,417	0,073	0,172
191,800	259,126	816,755	577,860	0,073	0,242
192,815	30,846	815,904	577,700	0,170	-0,137
193,829	56,107	815,262	577,519	0,193	-0,200
194,844	124,950	814,735	576,378	0,028	-0,050
195,859	2,789	814,103	576,272	-0,304	0,176
196,873	152,530	813,637	575,739	-0,166	0,343
197,888	-86,357	813,493	575,192	-0,312	0,032
198,902	-30,852	812,903	574,891	-0,284	0,099
199,917	12,409	812,227	574,750	0,078	-0,051
200,932	225,374	811,512	573,700	-0,128	-0,372
201,946	42,722	811,592	573,121	0,141	0,129
202,961	-70,748	810,803	572,574	0,027	0,004
203,975	800,000	810,246	572,558	0,010	-0,108
204,990	60,864	809,801	572,859	0,086	-0,094
206,004	115,189	808,790	572,173	0,152	-0,251
207,019	166,636	808,895	571,712	0,087	0,193
208,034	800,000	807,859	571,121	-0,018	0,258
209,048	71,459	806,992	571,000	0,126	0,151
210,063	-80,019	807,331	570,094	-0,405	-0,050
211,077	88,138	806,412	569,941	0,118	-0,160
212,092	81,678	806,002	569,367	0,051	-0,066
213,107	12,676	805,613	569,164	-0,204	0,134
214,121	18,031	805,278	568,592	0,119	-0,084
215,136	6,871	804,413	567,992	0,356	0,218
216,150	305,284	804,087	567,460	0,039	-0,150
217,165	66,408	804,002	567,288	-0,018	0,020
218,180	89,677	803,885	567,013	0,143	0,198
219,194	6,135	802,817	566,771	0,166	0,101
220,209	169,171	802,304	566,609	0,080	0,182
221,223	-99,281	801,940	566,356	-0,217	-0,015
222,238	-22,595	801,458	565,605	0,111	-0,045
223,253	435,808	800,985	564,877	0,020	0,104
224,267	105,081	800,330	564,306	-0,224	-0,347
225,282	210,592	799,696	564,418	0,062	0,170
226,296	16,713	799,267	563,604	-0,309	-0,214
227,311	159,114	799,108	563,450	-0,040	0,086
228,326	232,251	798,754	562,795	0,019	0,057
229,340	348,225	798,690	563,047	0,035	-0,152
230,355	65,498	797,628	562,512	-0,051	0,058
231,369	197,650	797,383	562,849	0,013	-0,034
232,384	-23,909	796,762	561,583	0,210	0,083
233,399	-72,256	796,502	561,218	-0,253	0,038
234,413	-71,417	796,231	560,623	-0,189	0,029
235,428	151,323	799,265	562,946	0,095	-0,197
236,442	339,792	1142,777	824,127	-0,034	0,142
237,457	52,183	1585,158	1370,593	0,168	-0,138
238,472	21,677	919,204	939,891	-0,205	-0,104
239,486	6,923	148,948	145,312	0,192	-0,085
240,501	-54,070	18,669	17,594	0,232	0,039
241,515	226,626	3,718	3,396	0,044	0,100
242,530	143,256	-0,129	0,290	-0,065	0,040
243,545	657,969	-0,126	2,054	0,171	-0,055
244,559	357,436	-0,757	1,112	-0,169	0,361
245,574	-33,822	-0,515	-0,563	-0,252	0,054
246,588	109,556	-0,950	-0,530	-0,086	0,174
247,603	132,153	1329,698	1403,189	0,072	-0,089
248,617	-52,069	1446,394	1403,383	-0,253	-0,043
