DTS Sentinel unit serial number:	SN307009Multiplexer serial number:	multiplexer serial numberHardware model number:	HL4Software version number:	Halo DTS v1.0data status	okinstallation	NYAN30AUG2019differential loss correction	combinedforward channel	channel 1reverse channel	channel 1 reversedate	2003/01/11time	03:10:09forward acquisition time	60.05reverse acquisition time	60.06gamma	510.3900k internal	0.1898k external	0.1898temperature offset calibration	1.0000default loss term (dB/km)	0.3938temperature slope calibration	NaNmultiplexer offset coefficient	1.0000multiplexer slope coefficient	1.0000fibre end	1298.10T internal ref (°C)	34.31T ext. ref 1 (°C)	NaNT ext. ref 2 (°C)	NaNlength (m)	temperature (°C)	forward Stokes	forward anti-Stokes	reverse Stokes	reverse anti-Stokes-584.984	170.878	0.054	-0.088	-0.006	-0.191
-582.954	189.402	-0.012	0.022	0.025	-0.025
-580.925	90.838	-0.070	0.068	-0.015	-0.009
-578.896	36.511	-0.121	0.072	0.082	0.123
-576.867	201.625	0.056	0.104	0.045	-0.031
-574.838	79.818	0.119	0.106	-0.101	0.163
-572.808	-31.417	0.164	-0.039	0.018	0.098
-570.779	73.023	-0.200	-0.168	0.148	-0.103
-568.750	139.697	0.017	0.024	0.019	-0.016
-566.721	-96.788	0.103	0.005	-0.008	-0.071
-564.692	573.336	-0.024	-0.117	0.055	-0.005
-562.662	178.894	-0.024	0.041	0.020	0.112
-560.633	105.927	0.058	-0.063	-0.064	-0.034
-558.604	226.001	0.042	0.088	-0.007	-0.102
-556.575	295.028	0.079	0.210	0.084	0.100
-554.546	72.388	-0.080	-0.067	0.029	0.018
-552.517	78.297	-0.035	-0.031	-0.103	0.012
-550.487	700.000	0.007	-0.057	-0.223	-0.023
-548.458	-200.000	0.004	0.124	-0.102	-0.020
-546.429	355.272	0.048	-0.151	0.060	0.046
-544.400	227.463	0.037	0.078	-0.008	-0.034
-542.371	-10.157	0.030	0.010	0.046	-0.120
-540.341	361.435	-0.019	-0.062	0.081	-0.101
-538.312	700.000	-0.020	0.145	-0.065	-0.020
-536.283	57.397	-0.125	-0.092	-0.179	0.011
-534.254	72.720	-0.109	-0.092	0.010	-0.051
-532.225	107.390	-0.103	-0.114	-0.008	0.050
-530.195	-2.213	0.097	0.036	0.185	-0.057
-528.166	355.197	-0.022	0.069	0.034	-0.134
-526.137	142.336	0.086	0.118	0.002	-0.003
-524.108	700.000	-0.007	-0.088	0.136	0.031
-522.079	298.818	0.047	0.128	-0.053	0.118
-520.049	169.069	-0.060	-0.096	0.031	0.003
-518.020	-31.132	0.043	0.010	0.000	0.033
-515.991	-12.889	0.100	0.032	0.001	-0.026
-513.962	105.226	-0.097	-0.105	-0.014	-0.110
-511.933	72.997	-0.104	-0.088	-0.021	0.073
-509.904	31.976	0.136	-0.077	-0.081	0.038
-507.874	-42.791	0.077	0.015	0.090	-0.138
-505.845	90.808	-0.068	-0.066	0.116	0.163
-503.816	337.367	-0.027	-0.082	0.037	0.073
-501.787	80.902	0.046	-0.041	0.096	0.048
-499.758	79.561	0.065	-0.058	-0.086	0.008
-497.728	12.450	-0.046	-0.021	-0.078	0.006
-495.699	-200.000	0.006	0.104	0.035	0.097
-493.670	330.899	-0.023	-0.068	-0.042	0.045
-491.641	700.000	0.016	-0.113	-0.058	0.102
-489.612	47.269	-0.048	0.032	-0.039	0.013
-487.582	-6.708	0.019	-0.007	-0.023	0.105
-485.553	338.268	-0.001	-0.003	0.010	-0.099
-483.524	84.423	0.044	0.041	0.187	0.053
-481.495	18.161	-0.044	0.021	0.130	0.130
-479.466	126.831	-0.066	0.082	-0.055	-0.042
-477.437	171.587	-0.037	-0.060	-0.068	-0.107
-475.407	66.494	0.083	-0.066	-0.025	-0.050
-473.378	186.215	-0.037	0.064	-0.003	-0.050
-471.349	347.721	0.002	-0.007	-0.015	-0.047
-469.320	-87.802	-0.056	-0.004	-0.137	-0.002
-467.291	29.430	-0.150	0.082	-0.053	0.085
-465.261	96.216	0.125	0.127	0.184	-0.094
-463.232	700.000	0.013	0.126	0.056	0.003
-461.203	-200.000	0.005	-0.089	0.021	0.061
-459.174	-40.674	-0.065	0.013	0.028	-0.010
-457.145	147.022	-0.008	-0.011	0.065	0.105
-455.115	-200.000	-0.003	-0.165	-0.200	-0.023
-453.086	219.789	-0.069	0.139	-0.056	-0.168
-451.057	61.517	-0.054	0.041	0.037	0.064
-449.028	-85.473	-0.062	0.004	-0.117	-0.138
-446.999	288.357	-0.051	0.133	0.050	-0.103
-444.969	385.030	-0.011	-0.036	0.014	0.060
-442.940	700.000	0.041	0.236	0.195	0.019
-440.911	282.791	-0.056	0.143	0.077	0.163
-438.882	64.165	0.108	-0.084	0.044	0.065
-436.853	-50.991	-0.046	0.007	0.008	0.095
-434.824	67.906	-0.089	-0.072	-0.021	0.002
-432.794	-1.521	-0.195	-0.073	-0.036	-0.205
-430.765	216.365	-0.077	-0.155	0.108	-0.024
-428.736	700.000	0.002	0.028	-0.055	-0.018
-426.707	139.351	-0.063	-0.085	0.093	-0.073
-424.678	-70.821	0.140	-0.015	0.070	0.067
-422.648	700.000	0.012	-0.128	-0.025	-0.018
-420.619	18.115	-0.098	0.047	-0.079	0.080
-418.590	-200.000	0.002	-0.055	-0.039	-0.047
-416.561	-67.804	-0.056	-0.006	-0.011	0.123
-414.532	208.050	0.099	-0.191	-0.002	0.045
-412.502	54.234	-0.051	0.037	-0.051	0.069
-410.473	-34.997	0.029	-0.006	-0.069	0.114
-408.444	633.409	0.006	-0.032	0.023	-0.113
-406.415	-200.000	-0.006	-0.133	0.070	-0.026
-404.386	145.663	0.081	0.114	-0.015	0.047
-402.357	452.893	0.025	0.098	-0.158	0.066
-400.327	169.915	-0.036	0.058	-0.067	0.025
-398.298	-40.748	-0.056	0.011	-0.003	0.003
-396.269	-200.000	-0.004	-0.075	0.058	0.000
-394.240	261.062	0.009	0.022	-0.114	0.045
-392.211	177.258	-0.099	-0.165	0.068	-0.051
-390.181	34.046	-0.070	-0.040	0.040	-0.011
-388.152	153.323	-0.053	-0.078	0.021	0.003
-386.123	70.184	-0.069	0.057	0.048	0.051
-384.094	-90.180	0.086	-0.005	-0.038	-0.016
-382.065	93.057	-0.044	0.044	-0.066	0.001
-380.035	223.244	-0.055	0.114	0.111	-0.114
-378.006	700.000	-0.007	0.090	0.035	0.098
-375.977	204.085	0.047	-0.090	-0.045	-0.083
-373.948	700.000	0.003	-0.024	0.004	-0.006
-371.919	545.441	-0.018	-0.082	0.026	-0.026
-369.889	-43.788	0.092	-0.017	0.037	0.088
-367.860	423.600	-0.007	0.026	0.029	-0.026
-365.831	-77.598	0.058	-0.005	0.009	-0.062
-363.802	104.861	0.089	0.096	-0.095	0.038
-361.773	477.592	-0.017	-0.070	-0.068	-0.041
-359.744	248.225	-0.066	-0.149	-0.005	0.056
-357.714	-200.000	-0.005	0.101	0.050	0.111
-355.685	65.793	-0.045	0.036	0.023	0.023
-353.656	43.219	-0.066	0.042	-0.025	0.095
-351.627	266.664	0.018	0.044	0.001	0.051
-349.598	30.168	-0.027	0.015	-0.071	-0.088
-347.568	56.782	0.130	-0.095	0.054	-0.040
-345.539	-85.929	0.048	0.003	-0.036	0.014
-343.510	373.054	0.063	0.210	-0.166	0.056
-341.481	298.059	0.009	-0.024	-0.034	-0.059
-339.452	2.275	-0.132	0.052	0.009	0.000
-337.422	-43.695	-0.108	-0.020	-0.022	0.010
-335.393	700.000	0.021	0.160	-0.027	0.008
-333.364	-69.957	-0.029	-0.003	-0.001	0.103
-331.335	700.000	0.005	-0.063	0.038	-0.185
-329.306	700.000	-0.009	-0.114	0.030	0.079
-327.276	289.162	-0.049	-0.127	0.037	-0.163
-325.247	56.425	-0.027	0.020	-0.132	-0.036
-323.218	66.258	-0.101	-0.081	-0.069	-0.015
-321.189	137.022	0.071	0.094	-0.021	0.116
-319.160	700.000	-0.027	-0.195	0.103	-0.050
-317.131	88.380	0.085	0.081	-0.018	-0.035
-315.101	327.297	0.047	-0.137	0.093	-0.037
-313.072	48.385	-0.081	0.054	-0.099	-0.074
-311.043	52.791	0.106	0.074	-0.055	-0.054
-309.014	54.254	0.051	-0.036	-0.033	-0.233
-306.985	-200.000	-0.001	0.081	0.090	-0.057
-304.955	308.004	0.076	0.211	0.092	0.054
-302.926	36.667	-0.019	0.011	-0.034	-0.068
-300.897	15.329	0.051	-0.024	0.079	0.118
-298.868	52.544	-0.132	0.092	0.000	-0.088
-296.839	364.154	0.008	0.024	0.137	0.049
-294.809	-22.000	0.126	-0.035	0.037	0.061
-292.780	500.015	0.011	-0.046	-0.041	-0.003
-290.751	494.695	-0.020	-0.086	0.016	0.153
-288.722	10.589	0.135	-0.059	-0.127	0.104
-286.693	147.752	0.056	0.080	0.066	0.058
-284.664	-94.735	0.019	0.001	-0.012	-0.049
-282.634	-200.000	-0.004	0.155	0.101	0.063
-280.605	-45.423	0.043	0.008	-0.111	-0.176
-278.576	692.861	0.007	-0.038	-0.064	-0.041
-276.547	-48.646	0.130	0.022	0.002	-0.052
-274.518	-200.000	0.004	-0.103	-0.010	0.050
-272.488	186.266	0.025	-0.043	0.032	-0.081
-270.459	-13.801	0.075	0.023	0.070	-0.057
-268.430	-56.233	-0.105	-0.015	-0.053	-0.024
-266.401	17.180	-0.122	-0.059	-0.023	0.126
-264.372	8.233	-0.106	0.045	-0.107	-0.134
-262.342	-60.129	0.125	0.017	0.052	0.197
-260.313	44.238	0.021	-0.014	0.065	0.045
-258.284	-104.013	0.075	0.003	0.062	-0.041
-256.255	117.672	-0.035	0.042	0.065	-0.038
-254.226	395.401	0.046	-0.160	0.052	-0.106
-252.196	43.652	0.072	-0.046	-0.141	-0.070
-250.167	10.787	0.112	-0.049	-0.008	-0.102
-248.138	509.996	-0.022	0.095	0.024	0.021
-246.109	17.413	0.048	0.023	-0.018	0.091
-244.080	182.907	-0.078	0.133	-0.005	-0.027
-242.051	358.113	-0.052	0.167	0.096	-0.081
-240.021	700.000	0.019	0.121	0.004	0.004
-237.992	700.000	0.018	0.102	0.254	0.004
-235.963	224.266	-0.079	0.163	-0.096	0.115
-233.934	700.000	0.016	0.134	-0.060	0.038
-231.905	34.264	-0.060	-0.035	0.016	0.022
-229.875	261.664	0.080	0.190	-0.027	0.053
-227.846	99.976	-0.041	-0.043	-0.066	-0.176
-225.817	127.168	0.019	-0.024	-0.058	-0.179
-223.788	-19.164	-0.104	0.030	-0.105	-0.109
-221.759	164.195	-0.038	0.059	0.004	0.058
-219.729	252.493	0.053	-0.122	0.014	-0.005
-217.700	-62.549	-0.192	0.024	0.005	0.137
-215.671	36.017	0.108	-0.064	-0.060	-0.105
-213.642	-83.661	0.148	-0.011	0.060	0.047
-211.613	-81.795	0.212	-0.016	0.025	0.187
-209.584	-18.786	-0.063	-0.018	0.011	-0.059
-207.554	40.515	-0.066	0.041	0.049	-0.028
-205.525	178.240	-0.033	-0.055	0.030	0.005
-203.496	117.142	0.038	-0.044	-0.062	0.061
-201.467	-128.292	0.062	0.001	-0.074	0.029
-199.438	65.055	-0.073	0.057	0.047	-0.002
-197.408	53.356	-0.038	-0.027	-0.111	-0.071
-195.379	-54.269	0.075	-0.011	0.085	-0.045
-193.350	-41.630	0.091	0.018	-0.049	0.040
-191.321	173.857	0.054	0.089	0.118	-0.082
-189.292	319.815	0.017	-0.050	-0.109	-0.138
-187.262	233.021	-0.025	0.053	0.136	-0.014
-185.233	-5.482	-0.053	0.019	-0.017	0.053
-183.204	86.678	-0.115	0.108	-0.013	0.037
-181.175	309.023	0.069	-0.192	0.032	0.141
-179.146	104.261	0.103	-0.111	0.029	-0.063
-177.116	90.142	0.084	-0.082	-0.128	0.047
-175.087	700.000	0.011	0.109	0.036	-0.001
-173.058	599.678	0.031	0.157	-0.089	-0.003
-171.029	-105.958	0.120	0.004	0.056	0.088
-169.000	395.343	-0.059	-0.205	-0.080	0.003
-166.971	-35.686	0.063	-0.014	-0.009	-0.032
-164.941	507.871	0.021	-0.091	-0.080	-0.021
-162.912	700.000	0.004	-0.054	0.112	0.035
-160.883	156.822	-0.003	-0.004	-0.115	0.028
-158.854	-50.417	-0.123	-0.020	0.136	-0.002
-156.825	267.987	0.041	0.100	-0.013	-0.044
-154.795	295.844	-0.036	-0.097	0.094	-0.015
-152.766	122.020	-0.041	0.050	0.050	0.001
-150.737	443.843	0.015	0.059	0.024	-0.014
-148.708	127.800	0.071	-0.089	0.062	-0.001
-146.679	-33.334	0.070	0.016	-0.110	0.051
-144.649	-200.000	-0.000	0.036	0.099	-0.079
-142.620	-200.000	0.003	-0.167	0.156	0.010
-140.591	637.843	-0.021	0.112	0.055	0.020
-138.562	81.999	-0.053	0.048	0.005	-0.088
-136.533	-148.246	-0.163	0.001	-0.108	-0.134
-134.503	80.264	-0.080	-0.072	-0.017	0.075
-132.474	700.000	-0.006	-0.061	0.023	0.055
-130.445	700.000	0.004	-0.033	0.159	-0.083
-128.416	115.132	-0.068	-0.079	-0.014	0.119
-126.387	280.877	-0.028	-0.070	-0.057	-0.053
-124.358	-40.786	0.098	-0.019	0.137	-0.044
-122.328	1.050	0.103	-0.040	0.003	0.050
-120.299	242.477	0.049	0.109	0.057	-0.061
-118.270	-5.547	0.080	-0.028	-0.143	-0.039
-116.241	-200.000	-0.003	-0.068	0.014	-0.138
-114.212	-100.979	0.116	0.005	-0.019	0.031
-112.182	-67.134	-0.175	0.020	-0.028	0.028
-110.153	108.007	0.085	0.094	0.086	-0.106
-108.124	-69.133	0.031	-0.003	-0.112	0.003
-106.095	-200.000	0.006	-0.208	0.012	0.046
-104.066	700.000	0.020	-0.132	-0.151	-0.114
-102.036	700.000	0.015	-0.119	0.030	0.002
-100.007	-19.671	0.026	0.007	0.033	-0.032
-97.978	700.000	0.021	-0.128	-0.081	-0.064
-95.949	-93.773	-0.123	-0.008	0.101	0.159
-93.920	10.860	0.097	0.055	0.001	0.209
-91.891	8.661	0.108	-0.058	-0.026	0.164
-89.861	249.427	-0.016	0.040	-0.037	0.031
-87.832	-87.213	-0.199	-0.018	-0.002	-0.026
-85.803	183.628	-0.008	0.015	0.020	0.038
-83.774	14.191	0.110	-0.065	0.110	0.026
-81.745	251.163	0.033	-0.128	-0.186	-0.030
-79.715	-38.199	0.078	-0.025	0.005	-0.050
-77.686	397.027	-0.020	-0.069	0.025	0.030
-75.657	67.253	-0.035	-0.040	0.117	0.071
-73.628	226.370	-0.071	-0.204	0.033	0.143
-71.599	36.830	-0.032	-0.028	0.056	-0.204
-69.569	-3.520	0.091	0.054	0.086	0.043
-67.540	221.491	0.016	0.047	-0.081	0.029
-65.511	-74.325	-0.249	0.027	-0.293	0.015
-63.482	83.312	-0.114	-0.174	-0.056	-0.137
-61.453	273.557	0.625	-2.573	0.426	-2.709
-59.423	-1.957	-1.230	0.789	-1.130	0.989
-57.394	-11.501	-0.814	-0.350	-0.753	-0.532
-55.365	429.877	-6.404	-33.086	-7.756	-32.002
-53.336	700.000	91.158	909.714	88.323	886.521
-51.307	107.796	2366.777	3458.523	2361.866	3461.217
-49.278	71.001	1875.665	2134.836	1881.397	2147.960
-47.248	85.825	1769.302	2257.751	1764.236	2249.222
-45.219	97.376	1774.917	1971.258	1764.733	1964.028
-43.190	79.631	1741.527	1899.663	1730.263	1889.498
-41.161	75.055	1736.956	1892.060	1727.758	1884.250
-39.132	64.192	1735.109	1889.564	1726.576	1882.195
-37.102	85.336	1730.757	1884.605	1723.607	1879.554
-35.073	46.109	1728.098	1882.990	1720.556	1877.294
-33.044	67.669	1725.974	1878.263	1716.913	1871.923
-31.015	49.366	1723.390	1875.697	1712.467	1866.963
-28.986	83.994	1721.165	1872.939	1711.956	1866.190
-26.956	63.772	1717.873	1868.381	1710.508	1863.508
-24.927	65.468	1714.651	1864.972	1709.528	1861.652
-22.898	97.215	1712.907	1862.397	1706.419	1858.014
-20.869	94.188	1711.187	1861.348	1702.349	1853.775
-18.840	-83.566	1708.815	1857.677	1698.664	1850.901
-16.810	-34.323	1706.381	1854.106	1698.404	1848.220
-14.781	39.598	1704.522	1852.286	1696.081	1845.936
-12.752	-29.326	1702.270	1849.036	1694.550	1843.173
-10.723	46.814	1698.636	1846.070	1691.504	1839.779
-8.694	34.495	1696.788	1844.484	1689.958	1838.238
-6.665	32.363	1695.039	1841.967	1687.033	1836.369
-4.635	38.531	1692.033	1838.227	1687.355	1836.070
-2.606	38.531	1690.640	1836.157	1685.397	1834.116
-0.577	38.512	1687.784	1832.057	1683.018	1832.167
1.452	37.280	1652.262	1770.876	1670.528	1806.081
3.481	33.824	1377.352	1422.806	1421.438	1465.685
5.511	34.116	1255.339	1300.323	1116.450	1151.787
7.540	34.005	1236.388	1279.240	1088.105	1126.429
9.569	33.781	1219.176	1259.091	1062.069	1096.437
11.598	33.810	1214.586	1253.893	1055.452	1089.522
13.627	33.841	1211.913	1251.652	1054.267	1089.218
15.657	33.777	1213.882	1252.909	1055.847	1089.960
17.686	33.747	1211.483	1249.858	1052.967	1086.714
19.715	33.926	1209.270	1248.969	1051.835	1085.548
21.744	33.773	1207.033	1244.300	1052.294	1084.660
23.773	33.838	1201.087	1238.945	1048.470	1081.014
25.802	33.868	1199.191	1236.725	1046.165	1078.032
27.832	33.797	1195.773	1232.401	1043.111	1075.289
29.861	33.379	1188.884	1219.115	1039.369	1051.458
31.890	25.466	1168.362	1096.220	1012.750	925.212
33.919	22.342	1148.563	1041.386	1001.271	898.664
35.948	22.145	1144.519	1033.164	995.030	887.434
37.978	20.813	1138.915	1021.072	996.498	888.909
40.007	18.912	1130.791	1013.763	993.775	883.349
42.036	19.674	1131.801	1015.856	991.338	881.986
44.065	18.226	1132.427	1015.168	992.486	883.075
46.094	17.625	1129.518	1013.391	990.780	882.124
48.124	17.584	1129.864	1013.584	989.384	881.192
50.153	17.529	1127.014	1009.649	989.020	880.608
52.182	17.585	1123.182	1006.243	987.321	878.982
54.211	17.646	1120.568	1004.257	986.881	885.063
56.240	18.309	1121.245	1012.419	1006.336	991.939
58.270	26.352	1140.937	1132.406	1016.197	1043.464
60.299	29.465	1149.403	1181.936	1016.872	1057.728
62.328	30.569	1153.245	1200.232	1019.209	1067.358
64.357	31.163	1155.553	1210.954	1019.515	1071.337
66.386	31.146	1158.667	1218.887	1017.966	1071.090
68.415	30.866	1158.885	1220.504	1015.840	1069.101
70.445	25.820	1157.481	1218.576	1011.164	1062.819
72.474	20.660	1152.306	1209.526	1013.065	1063.743
74.503	19.594	1150.573	1208.391	1009.718	1059.121
76.532	19.484	1149.848	1205.689	1009.158	1055.658
78.561	19.070	1144.398	1195.122	1006.300	1051.132
80.591	19.304	1142.196	1194.399	1006.832	1053.405
82.620	19.369	1144.833	1197.119	1006.271	1054.170
84.649	19.545	1140.164	1194.680	1005.176	1052.346
86.678	19.482	1140.825	1193.938	1004.619	1049.226
88.707	19.306	1139.439	1189.565	1002.452	1045.174
90.737	19.227	1137.406	1186.095	995.928	1033.941
92.766	19.450	1132.034	1176.030	993.879	1031.947
94.795	19.832	1131.168	1173.281	996.314	1034.461
96.824	25.315	1128.738	1170.868	996.219	1034.598
98.853	30.386	1130.606	1174.405	995.763	1036.050
100.882	32.161	1129.250	1174.478	995.347	1038.121
102.912	32.887	1127.481	1175.860	991.669	1035.654
104.941	33.391	1124.981	1175.030	989.132	1033.674
106.970	33.608	1125.338	1176.570	989.450	1035.676
108.999	33.715	1123.725	1174.922	990.973	1032.823
111.028	33.244	1122.646	1169.185	988.801	1029.895
113.058	33.217	1123.633	1170.562	986.391	1029.794
115.087	33.300	1122.911	1171.759	985.499	1029.860
117.116	33.130	1121.060	1170.863	984.908	1028.940
119.145	33.102	1117.879	1168.428	981.213	1025.311
121.174	33.319	1114.269	1165.607	979.555	1023.266
123.204	33.456	1114.786	1165.853	981.637	1024.086
125.233	33.327	1113.790	1163.168	978.789	1022.598
127.262	33.309	1117.102	1168.090	976.209	1021.086
129.291	33.139	1113.124	1163.432	978.117	1021.798
131.320	32.834	1112.035	1161.428	973.012	1015.805
133.350	32.548	1111.608	1159.788	971.740	1015.522
135.379	32.616	1106.370	1155.074	973.918	1013.709
137.408	32.358	1104.113	1147.635	968.706	1007.663
139.437	32.525	1100.247	1143.435	969.374	1008.459
141.466	32.882	1101.741	1145.552	969.237	1005.968
143.495	32.738	1101.878	1142.302	964.503	998.347
145.525	32.657	1100.249	1138.895	963.639	999.713
147.554	32.817	1097.348	1136.976	963.464	999.282
149.583	32.652	1096.277	1137.120	960.480	996.956
151.612	32.752	1093.155	1135.091	958.688	995.497
153.641	32.951	1092.483	1133.656	958.694	993.742
155.671	32.995	1092.754	1132.860	955.007	987.924
157.700	32.799	1090.281	1127.643	954.644	986.688
159.729	32.882	1089.564	1126.749	957.118	991.243
161.758	33.097	1088.563	1127.377	954.253	988.209
163.787	33.046	1087.831	1127.432	951.197	982.044
165.817	33.116	1087.496	1126.389	948.257	980.710
167.846	33.216	1085.103	1124.332	947.699	982.533
169.875	33.243	1084.959	1125.303	947.788	983.525
171.904	33.283	1082.391	1123.286	947.894	984.167
173.933	33.299	1082.232	1123.273	948.541	982.680
175.963	32.998	1081.141	1120.839	943.824	976.758
177.992	32.761	1080.086	1119.085	942.346	974.860
180.021	32.584	1078.331	1114.852	942.352	975.618
182.050	32.713	1071.716	1109.675	943.040	978.401
184.079	32.777	1072.069	1112.299	939.009	972.453
186.108	32.579	1069.823	1108.038	936.572	970.635
188.138	32.816	1068.143	1107.740	936.540	972.295
190.167	33.129	1070.197	1111.715	936.840	972.442
192.196	33.192	1069.282	1110.735	936.023	971.662
194.225	33.117	1067.657	1109.321	934.629	973.050
196.254	33.189	1068.656	1112.699	934.141	972.427
198.284	33.112	1067.665	1111.685	932.456	969.279
200.313	33.173	1066.392	1109.426	932.522	967.500
202.342	33.090	1064.837	1105.245	928.959	962.581
204.371	32.976	1059.839	1098.472	925.657	960.316
206.400	33.098	1059.543	1099.725	925.621	959.091
208.430	33.061	1061.663	1100.205	925.063	957.953
210.459	33.130	1060.527	1098.369	923.957	957.089
212.488	33.241	1057.200	1095.206	921.425	953.271
214.517	33.028	1054.558	1090.902	921.236	951.785
216.546	32.977	1051.511	1087.643	920.688	949.940
218.575	32.818	1049.797	1084.059	921.491	950.853
220.605	32.854	1051.525	1086.057	919.178	949.189
222.634	33.032	1052.120	1086.843	918.486	950.165
224.663	33.199	1047.510	1083.198	917.964	949.494
226.692	33.150	1045.862	1081.891	917.995	947.897
228.721	33.232	1045.894	1080.342	914.199	942.652
230.751	33.415	1044.119	1078.470	911.025	943.226
232.780	33.692	1045.178	1082.543	912.945	943.208
234.809	33.611	1043.196	1077.877	909.072	939.263
236.838	33.653	1040.990	1075.834	909.413	939.521
238.867	33.593	1039.942	1074.204	908.630	939.583
240.897	33.653	1041.447	1077.247	907.542	935.858
242.926	33.253	1038.165	1070.986	903.996	928.588
244.955	32.895	1034.343	1062.510	903.742	929.961
246.984	33.053	1034.920	1064.954	903.413	930.824
249.013	33.076	1029.337	1059.603	902.493	930.214
251.043	33.256	1032.278	1064.866	899.453	926.000
253.072	33.074	1031.209	1061.472	899.033	928.176
255.101	33.330	1028.992	1062.299	899.439	928.660
257.130	33.128	1029.185	1061.617	898.015	926.794
259.159	33.094	1028.526	1061.237	895.703	921.679
261.188	33.015	1027.568	1058.047	898.090	925.100
263.218	33.097	1024.726	1054.399	898.559	927.445
265.247	33.533	1023.623	1057.374	894.374	922.765
267.276	33.408	1023.121	1055.503	892.704	922.111
269.305	33.436	1020.343	1053.619	892.956	921.546
271.334	33.611	1019.982	1053.091	891.308	919.901
273.364	33.503	1019.872	1051.978	891.428	916.133
275.393	33.161	1016.219	1044.412	887.960	910.127
277.422	32.853	1012.658	1038.019	886.863	912.556
279.451	33.347	1015.314	1045.151	886.653	913.033
281.480	33.384	1012.062	1042.668	887.552	916.356
283.510	33.225	1012.631	1045.058	887.813	914.272
285.539	33.097	1009.424	1039.584	884.356	909.584
287.568	32.952	1007.511	1035.838	880.652	907.896
289.597	33.506	1009.260	1040.898	881.153	909.053
291.626	33.428	1008.149	1039.652	883.339	909.694
293.655	33.364	1006.527	1036.664	880.724	907.712
295.685	33.579	1006.063	1037.572	874.720	900.677
297.714	33.506	1002.936	1033.347	875.631	900.628
299.743	33.321	1002.713	1031.748	878.142	901.344
301.772	33.000	1001.843	1028.153	872.483	896.162
303.801	33.373	998.604	1025.825	870.947	894.059
305.831	33.488	999.094	1026.442	871.263	894.337
307.860	33.518	998.344	1025.026	869.377	891.638
309.889	33.445	997.537	1023.560	869.622	892.296
311.918	33.429	995.171	1021.485	868.087	891.185
313.947	33.435	991.688	1018.628	868.472	891.981
315.977	33.062	989.859	1016.689	867.421	890.675
318.006	33.363	990.532	1017.900	866.638	890.066
320.035	33.489	989.509	1015.735	864.936	887.600
322.064	33.680	989.083	1016.283	863.454	884.285
324.093	33.461	989.578	1013.732	864.891	885.905
326.123	33.267	986.639	1010.787	862.146	883.325
328.152	33.605	984.249	1009.797	859.150	879.345
330.181	33.567	987.656	1011.141	857.857	879.382
332.210	33.509	984.971	1009.773	858.326	879.916
334.239	33.490	982.118	1005.845	858.033	878.715
336.268	33.582	980.542	1004.897	854.747	874.807
338.298	33.319	979.589	1002.043	853.339	874.791
340.327	33.431	978.862	1003.320	852.838	876.702
342.356	33.625	976.616	1003.737	855.510	877.679
344.385	33.569	974.374	1000.253	852.807	873.885
346.414	33.462	973.788	998.463	851.001	870.646
348.444	33.289	974.019	996.729	850.784	871.317
350.473	33.499	972.211	996.252	848.949	870.765
352.502	33.780	971.692	998.391	848.064	869.919
354.531	33.702	971.037	996.521	847.654	867.739
356.560	33.527	966.654	989.835	847.543	866.560
358.590	33.389	963.963	985.420	844.270	861.865
360.619	33.327	962.226	982.633	841.759	858.091
362.648	33.045	964.044	982.548	841.435	857.919
364.677	33.030	964.703	983.958	840.783	857.869
366.706	33.120	964.514	983.537	839.092	856.408
368.736	33.069	961.025	980.076	839.668	856.988
370.765	33.277	958.652	978.418	840.563	857.947
372.794	33.490	959.759	980.964	837.696	855.232
374.823	33.437	957.814	978.673	836.466	853.752
376.852	33.210	956.040	975.445	835.515	852.504
378.881	33.356	956.161	975.822	833.467	851.232
380.911	33.641	954.977	975.065	833.122	849.325
382.940	33.612	953.178	972.063	830.334	846.106
384.969	33.445	951.011	968.939	829.469	843.962
386.998	33.267	948.865	966.454	829.465	844.422
389.027	33.293	949.210	966.340	828.407	842.582
391.057	33.510	949.323	966.344	827.721	841.937
393.086	33.593	947.321	964.620	826.064	841.945
395.115	33.613	948.470	967.400	827.542	843.525
397.144	33.368	946.395	964.345	827.848	843.824
399.173	33.323	943.486	961.939	823.713	838.715
401.203	33.198	942.316	960.542	822.361	836.634
403.232	33.133	938.854	956.202	822.899	837.327
405.261	33.215	937.559	955.015	819.526	832.762
407.290	33.164	938.133	954.247	818.629	832.511
409.319	33.219	936.363	952.640	817.744	831.933
411.348	33.255	933.826	949.781	818.365	831.770
413.378	33.440	933.643	950.459	815.236	827.999
415.407	33.253	931.650	946.788	815.795	828.817
417.436	33.220	931.959	946.692	814.749	827.973
419.465	33.461	930.662	946.613	813.324	827.756
421.494	33.590	928.510	946.108	814.784	830.631
423.524	33.530	928.178	945.895	811.275	824.221
425.553	33.238	926.673	942.109	810.417	823.855
427.582	33.356	923.463	940.127	811.110	824.500
429.611	33.315	923.548	939.449	809.912	824.557
431.640	33.351	924.262	939.890	808.634	824.250
433.670	33.668	921.943	939.234	807.187	821.874
435.699	33.709	920.493	937.244	806.220	820.029
437.728	33.562	919.916	935.185	804.869	817.645
439.757	33.543	917.995	932.683	802.400	813.523
441.786	33.270	916.236	928.497	801.676	813.360
443.816	33.309	912.873	925.926	801.247	813.401
445.845	33.368	913.217	926.757	798.787	809.777
447.874	33.363	910.476	924.342	797.919	809.291
449.903	33.272	910.262	922.615	798.502	809.424
451.932	33.322	911.092	923.117	798.157	808.364
453.961	33.218	909.787	920.428	796.818	806.298
455.991	33.195	909.037	919.548	796.161	804.965
458.020	33.187	907.249	916.881	795.189	803.867
460.049	33.287	907.633	916.912	794.440	803.517
462.078	33.459	907.625	916.882	793.365	801.526
464.107	33.383	904.838	913.790	791.848	799.023
466.137	33.194	902.089	909.833	788.783	794.868
468.166	33.166	901.279	908.425	788.267	795.113
470.195	33.183	900.944	908.086	786.986	793.384
472.224	33.225	899.706	906.562	787.393	794.091
474.253	33.395	898.130	905.614	786.871	794.020
476.283	33.342	897.862	905.548	786.144	793.539
478.312	33.325	895.110	903.123	783.395	790.482
480.341	33.059	892.518	899.568	782.000	790.210
482.370	33.260	891.430	900.384	782.457	792.786
484.399	33.614	894.203	905.930	779.802	788.979
486.428	33.535	892.482	902.671	777.672	784.150
488.458	33.214	889.131	896.559	778.692	785.664
490.487	33.163	886.588	893.850	777.745	785.727
492.516	33.292	887.178	896.371	777.097	784.493
494.545	33.252	888.122	896.901	776.664	783.479
496.574	32.976	887.170	894.105	775.244	782.014
498.604	32.991	886.441	894.220	775.774	781.878
500.633	33.017	884.068	891.201	774.654	781.944
502.662	33.202	881.745	890.047	774.919	784.120
504.691	33.336	882.402	892.229	773.806	781.842
506.720	33.280	882.035	892.082	773.655	782.574
508.750	33.360	879.373	890.212	771.524	780.725
510.779	33.374	878.229	889.275	769.572	777.336
512.808	33.307	878.189	887.906	769.535	777.210
514.837	33.373	879.161	888.532	763.685	770.214
516.866	33.354	876.570	884.394	763.244	768.965
518.896	33.135	874.463	880.200	764.252	769.996
520.925	33.331	874.234	880.820	761.990	765.583
522.954	33.310	873.238	877.899	761.937	766.357
524.983	33.264	870.885	874.746	761.953	767.319
527.012	33.302	869.284	875.180	761.802	766.102
529.041	33.103	868.546	873.605	762.513	768.930
531.071	33.421	866.724	873.320	760.314	765.560
533.100	33.513	865.166	871.747	758.936	761.983
535.129	33.155	865.236	869.555	756.603	760.083
537.158	33.030	865.929	868.712	757.693	760.729
539.187	33.108	864.149	866.951	756.745	759.256
541.217	33.126	861.637	863.844	752.373	754.457
543.246	33.307	862.577	865.048	750.636	752.345
545.275	33.391	862.382	864.450	752.983	754.737
547.304	33.357	857.787	858.369	752.457	753.690
549.333	33.437	856.311	857.223	748.478	749.329
551.363	33.270	853.782	854.113	749.998	752.315
553.392	33.447	857.323	859.401	747.265	748.860
555.421	33.372	857.749	859.505	744.064	744.437
557.450	33.084	855.290	856.071	742.817	742.385
559.479	32.867	852.952	852.091	740.463	739.445
561.509	32.892	851.521	850.924	740.554	740.861
563.538	32.802	849.954	848.924	738.455	738.831
565.567	33.009	846.687	846.100	733.914	733.896
567.596	33.061	846.128	845.854	733.610	734.013
569.625	33.237	845.293	846.191	734.740	734.523
571.654	33.133	846.178	845.486	732.693	734.281
573.684	33.251	845.066	846.369	733.434	734.065
575.713	33.103	843.469	844.609	732.223	732.664
577.742	33.096	841.683	842.452	731.725	733.618
579.771	33.270	842.583	845.315	729.853	730.550
581.800	33.233	843.209	845.862	727.428	729.456
583.830	33.299	842.227	845.706	727.518	730.603
585.859	33.361	841.697	845.825	726.546	729.385
587.888	33.267	841.186	844.457	726.310	728.521
589.917	33.305	840.063	844.186	725.712	726.693
591.946	33.306	839.135	842.219	723.706	724.955
593.976	33.449	836.640	839.762	720.963	722.738
596.005	33.363	834.447	837.485	720.678	722.433
598.034	33.281	833.031	836.499	719.158	720.864
600.063	33.331	830.991	834.999	718.629	720.175
602.092	33.161	827.368	829.153	717.183	717.875
604.121	33.107	827.185	827.707	713.806	714.627
606.151	33.083	828.560	828.870	710.567	711.058
608.180	33.052	825.696	824.917	710.493	710.807
610.209	33.022	824.945	823.793	709.388	709.356
612.238	33.317	825.073	824.980	707.255	707.244
614.267	33.245	822.663	821.273	706.498	706.425
616.297	33.291	821.332	820.390	706.515	706.906
618.326	33.399	820.982	819.508	705.111	705.287
620.355	33.478	819.198	817.450	705.926	705.651
622.384	33.568	819.040	817.585	704.106	704.090
624.413	33.617	817.481	815.468	703.614	703.338
626.443	33.624	812.335	810.300	702.038	701.468
628.472	33.729	812.925	811.189	699.581	698.880
630.501	33.698	813.286	811.485	697.165	696.278
632.530	33.686	812.851	810.875	699.853	698.881
634.559	33.713	811.676	809.129	698.717	697.373
636.589	33.638	810.801	808.083	697.470	696.298
638.618	33.627	808.582	805.536	697.565	696.240
640.647	33.543	807.530	804.317	695.386	693.785
642.676	33.387	804.938	802.009	694.816	693.844
644.705	33.351	803.586	800.765	695.167	693.859
646.734	33.355	803.961	801.006	692.992	691.312
648.764	33.317	802.502	799.027	692.688	690.836
650.793	33.375	800.769	797.435	693.023	691.013
652.822	33.425	802.004	798.703	689.796	687.677
654.851	33.262	802.880	798.564	687.052	686.521
656.880	33.364	801.471	798.018	687.311	687.699
658.910	33.441	798.537	795.553	686.135	685.889
660.939	33.326	796.823	792.942	684.375	685.018
662.968	33.301	794.240	789.908	684.773	684.593
664.997	33.262	795.186	790.324	684.871	684.372
667.026	33.298	794.414	789.687	683.884	683.963
669.056	33.386	793.933	789.799	683.085	682.321
671.085	33.403	792.567	788.301	682.001	681.518
673.114	33.522	790.828	787.285	680.945	679.465
675.143	33.375	788.258	783.600	680.099	678.223
677.172	33.271	788.354	782.532	677.919	675.599
679.202	33.374	787.899	782.647	675.566	671.534
681.231	33.035	786.632	778.810	675.725	671.732
683.260	33.077	785.993	778.636	674.687	670.696
685.289	33.069	783.714	776.308	674.087	668.209
687.318	32.887	783.703	774.492	672.234	666.638
689.347	32.979	779.831	771.195	670.552	663.973
691.377	32.892	777.945	768.294	669.438	663.109
693.406	32.971	779.421	770.415	670.281	663.342
695.435	32.874	778.389	767.967	670.309	662.708
697.464	32.832	774.644	763.550	669.464	661.641
699.493	32.819	774.175	762.896	669.331	662.376
701.523	32.914	771.711	761.230	670.222	664.374
703.552	33.045	772.536	763.528	668.177	661.491
705.581	32.897	771.379	761.514	664.097	656.111
707.610	32.823	767.348	756.092	663.988	656.548
709.639	33.065	768.119	758.015	663.600	656.177
711.669	32.997	765.490	754.503	665.636	658.185
713.698	32.853	760.527	749.141	663.592	656.392
715.727	32.813	759.714	749.304	661.972	654.814
717.756	32.868	761.718	751.240	662.280	655.771
719.785	32.737	760.692	749.881	661.782	654.619
721.814	32.682	758.394	747.446	659.801	653.497
723.844	32.821	758.405	747.831	658.196	653.061
725.873	33.003	757.819	749.789	657.878	652.317
727.902	32.969	758.353	750.106	657.460	651.238
729.931	32.761	755.429	745.646	655.831	650.119
731.960	32.826	754.444	745.036	656.124	648.689
733.990	32.633	751.901	740.907	655.806	648.755
736.019	32.416	751.026	739.261	655.608	648.673
738.048	32.641	750.929	740.938	653.721	646.580
740.077	32.624	747.668	736.841	653.819	648.272
742.106	32.893	746.727	736.986	654.041	649.017
744.136	33.229	749.484	741.574	651.882	646.557
746.165	32.953	748.002	738.719	650.668	646.411
748.194	33.134	748.179	740.493	649.645	645.318
750.223	33.028	748.287	739.275	650.328	645.082
752.252	33.008	746.567	737.299	648.148	642.172
754.282	33.055	746.156	737.021	646.605	639.409
756.311	32.925	743.774	733.237	646.535	638.708
758.340	32.801	743.135	731.144	646.591	638.374
760.369	32.879	740.862	729.082	645.972	636.913
762.398	32.878	740.080	728.489	645.440	637.620
764.427	33.013	739.098	727.211	642.939	634.919
766.457	33.234	738.132	726.632	641.013	631.369
768.486	32.836	737.048	723.554	640.787	631.562
770.515	32.756	733.988	719.763	641.863	634.274
772.544	33.133	734.106	723.199	641.579	634.123
774.573	33.104	734.254	723.928	637.831	629.181
776.603	33.018	732.228	720.035	637.245	627.405
778.632	32.963	732.008	718.828	637.351	627.953
780.661	33.108	732.372	719.790	637.683	627.232
782.690	33.061	731.456	717.581	636.315	625.204
784.719	33.018	730.296	715.766	636.059	624.214
786.749	33.023	728.527	713.118	634.830	623.180
788.778	33.053	727.033	711.721	633.126	621.299
790.807	32.938	726.144	710.614	632.296	621.110
792.836	33.039	726.664	711.381	632.660	621.770
794.865	33.093	726.284	712.378	632.798	621.694
796.894	32.892	725.594	711.412	631.668	619.617
798.924	32.804	724.501	709.534	630.017	618.306
800.953	32.804	723.672	708.525	629.632	618.857
802.982	32.933	722.854	708.337	628.735	617.706
805.011	33.075	722.228	708.300	627.815	617.404
807.040	32.899	720.978	706.230	625.852	615.579
809.070	32.895	718.356	704.197	624.661	615.004
811.099	33.065	717.467	703.032	624.777	614.584
813.128	33.345	717.897	704.205	622.930	612.339
815.157	33.074	716.415	701.746	623.538	612.274
817.186	32.894	715.333	700.570	623.117	613.404
819.216	32.999	715.473	701.616	623.081	613.480
821.245	33.033	715.056	701.550	621.911	613.286
823.274	33.153	713.928	701.715	621.730	612.397
825.303	33.100	713.589	701.280	621.457	611.472
827.332	33.007	713.150	699.933	619.648	609.693
829.362	32.807	712.545	698.195	618.063	607.738
831.391	32.777	710.022	695.010	618.045	607.989
833.420	32.852	709.478	694.186	617.514	608.398
835.449	33.251	709.992	696.905	616.059	605.738
837.478	33.030	707.299	692.626	616.152	604.887
839.507	32.892	707.131	691.452	614.520	602.515
841.537	32.845	705.759	689.316	612.610	600.786
843.566	32.929	704.011	687.645	612.475	600.547
845.595	33.042	704.615	688.481	610.582	598.203
847.624	33.036	702.260	685.683	610.815	597.729
849.653	33.007	700.975	684.345	609.546	596.927
851.683	33.001	700.719	683.458	607.349	594.589
853.712	33.142	701.140	684.937	606.574	594.052
855.741	32.989	699.367	682.524	606.870	594.803
857.770	33.200	698.771	682.679	605.907	593.484
859.799	33.336	700.482	684.370	606.081	593.820
861.829	33.394	698.412	682.030	605.459	592.837
863.858	33.438	695.788	679.052	603.522	589.788
865.887	33.251	695.330	677.610	603.621	589.417
867.916	33.058	694.409	676.270	601.587	587.180
869.945	33.001	693.431	675.157	600.507	585.997
871.975	32.887	691.708	672.925	599.882	585.881
874.004	33.169	690.825	672.589	599.764	586.134
876.033	33.253	691.020	673.552	599.322	586.394
878.062	33.210	689.368	672.667	598.493	584.622
880.091	33.032	689.499	671.906	596.965	582.869
882.120	32.993	688.261	670.609	597.231	583.638
884.150	33.101	687.923	670.778	596.773	582.501
886.179	33.053	688.646	670.538	594.320	579.601
888.208	32.988	686.344	667.829	594.432	579.595
890.237	32.845	684.720	665.668	595.438	580.051
892.266	32.882	684.155	664.883	593.887	578.092
894.296	32.847	682.713	663.057	592.248	576.099
896.325	32.894	681.136	661.501	589.472	574.119
898.354	33.062	680.947	661.859	588.819	573.977
900.383	33.132	682.304	663.482	589.007	575.082
902.412	33.229	680.775	662.730	590.168	577.320
904.442	33.342	679.479	663.257	589.243	576.568
906.471	33.191	678.752	661.869	588.410	574.181
908.500	33.092	678.416	660.405	587.879	572.643
910.529	32.977	676.470	657.778	586.298	572.122
912.558	33.166	676.673	658.730	584.999	571.574
914.587	33.273	676.998	659.325	584.943	571.438
916.617	33.471	673.497	656.384	584.646	569.575
918.646	33.221	672.068	653.326	584.024	567.643
920.675	33.037	671.736	651.725	583.299	567.650
922.704	33.148	672.370	652.944	582.270	566.885
924.733	33.120	670.839	651.323	582.990	567.509
926.763	33.082	669.173	649.506	582.850	565.834
928.792	32.897	668.132	647.199	579.915	563.918
930.821	32.920	668.908	648.253	579.965	562.881
932.850	32.864	669.103	648.440	579.985	563.249
934.879	32.794	666.267	645.412	577.974	562.240
936.909	33.090	666.192	646.803	577.207	561.252
938.938	33.195	665.470	645.855	576.325	560.311
940.967	33.269	664.704	644.777	574.451	558.344
942.996	33.500	663.575	644.140	574.069	557.715
945.025	33.388	661.975	641.473	574.285	557.890
947.055	33.245	661.264	640.499	574.424	557.389
949.084	33.065	659.552	638.337	573.473	556.303
951.113	33.159	659.022	637.930	572.787	555.846
953.142	33.251	656.985	635.775	571.006	553.542
955.171	33.393	657.492	636.125	571.376	554.236
957.200	33.357	658.975	638.210	570.249	553.490
959.230	33.150	655.034	634.206	569.283	553.224
961.259	33.196	653.767	633.308	569.544	553.717
963.288	33.496	656.282	637.239	568.500	551.429
965.317	33.304	656.488	635.952	567.866	552.499
967.346	33.288	653.150	633.326	566.943	551.224
969.376	33.197	652.003	631.394	564.592	546.558
971.405	32.970	652.692	630.434	564.599	548.313
973.434	33.203	653.178	632.631	564.601	548.070
975.463	33.376	651.975	631.760	563.286	546.195
977.492	33.224	649.977	628.064	563.170	545.466
979.522	33.196	647.852	625.776	560.487	539.671
981.551	32.759	647.417	622.307	561.056	543.077
983.580	33.029	647.829	624.697	561.365	543.772
985.609	33.286	646.308	625.289	560.268	542.932
987.638	33.207	645.471	624.239	559.231	542.362
989.667	33.215	643.704	622.280	559.659	542.010
991.697	33.145	643.794	621.721	558.115	540.629
993.726	33.278	644.728	623.254	557.814	537.849
995.755	32.870	642.967	619.008	557.633	538.129
997.784	32.951	639.671	615.579	556.890	537.918
999.813	33.304	639.871	617.296	556.127	537.190
1001.843	33.385	638.776	616.180	554.509	535.273
1003.872	33.314	636.917	614.090	554.757	534.513
1005.901	33.208	635.710	611.581	553.250	534.526
1007.930	33.355	636.077	612.913	550.807	529.854
1009.959	32.917	635.306	610.407	551.573	531.046
1011.989	32.802	634.007	608.259	550.292	528.412
1014.018	32.809	632.811	605.825	551.257	531.606
1016.047	33.133	633.489	609.321	551.242	532.338
1018.076	33.177	632.546	609.489	549.388	529.452
1020.105	32.794	631.392	607.673	548.499	529.226
1022.135	32.843	629.901	606.061	548.507	528.979
1024.164	33.246	630.609	607.098	547.955	529.264
1026.193	33.331	628.150	604.598	546.373	526.083
1028.222	33.111	628.910	603.501	545.596	525.719
1030.251	33.193	629.048	604.525	544.230	524.583
1032.280	33.338	627.861	604.362	544.178	524.227
1034.310	33.051	626.903	602.365	545.168	524.391
1036.339	32.793	625.513	600.129	543.597	521.949
1038.368	32.844	625.509	599.362	541.464	520.014
1040.397	32.921	623.575	597.330	540.745	520.248
1042.426	33.074	622.458	597.213	540.708	520.380
1044.456	32.837	621.037	595.527	540.699	520.202
1046.485	32.961	621.208	596.468	541.477	521.066
1048.514	32.891	620.028	594.843	540.538	520.142
1050.543	32.950	618.695	594.557	538.165	518.128
1052.572	32.840	617.105	593.282	537.136	516.480
1054.602	32.837	617.924	592.691	537.946	518.266
1056.631	33.311	617.976	593.969	537.319	518.184
1058.660	33.410	617.153	593.750	537.177	518.045
1060.689	33.493	616.302	593.580	536.061	517.244
1062.718	33.426	615.274	592.162	534.264	514.370
1064.748	33.281	614.839	589.921	533.791	514.008
1066.777	33.163	613.553	589.309	532.811	512.380
1068.806	33.029	611.690	586.750	530.766	508.476
1070.835	32.918	610.194	583.655	530.177	508.587
1072.864	32.983	610.692	584.203	529.711	508.053
1074.893	33.016	610.888	585.328	528.548	505.747
1076.923	32.560	609.133	581.361	529.870	506.851
1078.952	32.506	607.517	579.636	529.729	506.763
1080.981	32.590	607.334	579.450	529.199	506.259
1083.010	32.815	608.172	580.888	528.126	506.027
1085.039	33.024	606.473	579.844	527.044	504.565
1087.069	33.011	604.832	578.111	527.089	503.988
1089.098	32.859	603.184	575.388	526.090	502.205
1091.127	32.710	601.982	572.705	525.616	501.790
1093.156	32.606	601.873	572.247	524.576	500.863
1095.185	32.753	602.129	573.080	523.578	499.390
1097.215	32.901	601.889	572.788	522.669	497.342
1099.244	32.786	598.818	568.260	521.862	496.928
1101.273	32.825	597.895	567.344	521.563	497.249
1103.302	32.907	597.580	568.724	520.069	496.612
1105.331	32.815	595.819	566.974	519.266	495.697
1107.360	32.939	595.197	567.090	518.959	494.541
1109.390	32.677	595.315	566.266	518.485	493.218
1111.419	32.491	593.151	563.637	518.549	493.245
1113.448	32.434	592.194	561.755	518.225	493.756
1115.477	32.571	593.602	564.504	516.879	492.726
1117.506	32.458	592.169	563.099	515.042	490.502
1119.536	32.343	591.041	561.286	515.212	491.455
1121.565	32.679	591.370	563.174	515.205	492.903
1123.594	33.050	588.756	561.904	516.043	493.707
1125.623	32.984	588.470	561.099	514.857	492.485
1127.652	32.998	589.082	562.226	514.530	492.644
1129.682	32.853	586.358	559.864	514.664	492.807
1131.711	32.546	586.337	559.059	512.342	489.251
1133.740	32.482	585.789	557.194	511.157	489.112
1135.769	32.695	583.001	555.331	510.050	487.738
1137.798	32.520	582.860	554.926	510.221	487.197
1139.828	32.606	582.849	555.405	509.911	486.899
1141.857	32.644	582.055	553.942	509.698	486.342
1143.886	32.654	581.402	552.363	508.787	483.900
1145.915	32.490	581.262	551.126	507.755	482.082
1147.944	32.494	580.795	551.074	506.734	483.210
1149.973	32.769	578.869	550.919	506.074	482.190
1152.003	32.457	577.215	548.328	504.945	480.767
1154.032	32.630	577.170	548.602	504.316	479.979
1156.061	32.638	577.711	547.831	504.393	478.162
1158.090	32.450	576.685	545.416	503.075	475.950
1160.119	32.197	576.015	543.054	501.549	473.606
1162.149	32.391	574.433	541.054	500.995	472.702
1164.178	32.340	571.660	537.927	500.050	472.610
1166.207	32.496	571.027	538.156	500.765	474.758
1168.236	32.931	572.645	541.660	500.325	474.942
1170.265	32.907	572.855	541.972	499.574	475.079
1172.295	32.983	571.996	542.352	498.722	474.552
1174.324	33.095	571.651	542.394	499.038	474.109
1176.353	33.036	570.238	540.384	496.716	470.863
1178.382	32.751	568.875	537.465	496.613	470.838
1180.411	32.989	568.358	538.287	497.236	473.026
1182.441	32.982	568.062	538.299	496.065	472.421
1184.470	32.867	567.837	538.462	495.895	472.241
1186.499	32.921	565.629	536.792	496.825	474.176
1188.528	33.444	566.344	538.773	496.652	473.327
1190.557	33.449	566.172	538.611	494.988	471.578
1192.586	33.141	566.004	537.144	493.075	467.901
1194.616	32.769	564.415	534.073	491.018	464.079
1196.645	32.314	562.447	530.687	488.579	458.019
1198.674	31.159	561.352	524.035	482.832	432.662
1200.703	26.588	553.486	491.264	473.034	389.119
1202.732	19.198	543.490	442.629	468.764	383.667
1204.762	18.665	540.724	437.610	466.982	378.823
1206.791	18.312	538.773	432.873	466.408	378.293
1208.820	18.392	536.509	430.421	465.935	377.815
1210.849	18.615	535.210	429.577	464.486	376.408
1212.878	18.573	533.873	427.799	464.056	376.047
1214.908	18.556	531.507	426.133	461.931	374.284
1216.937	18.390	531.077	425.591	460.183	371.913
1218.966	18.611	529.996	425.603	461.270	373.268
1220.995	18.442	526.945	421.299	460.385	372.528
1223.024	18.525	526.525	420.743	459.254	371.268
1225.053	20.960	529.568	435.169	463.142	392.856
1227.083	29.884	538.690	489.717	467.363	428.603
1229.112	30.808	540.874	496.666	469.065	431.796
1231.141	31.172	541.613	499.840	468.702	433.789
1233.170	31.219	541.799	501.684	468.320	433.696
1235.199	30.606	542.221	501.601	468.957	434.125
1237.229	29.527	541.174	500.221	467.845	433.148
1239.258	26.717	540.797	500.453	467.628	433.357
1241.287	19.969	540.621	500.261	466.835	432.395
1243.316	17.174	538.378	498.036	465.020	430.538
1245.345	16.916	537.637	496.782	464.827	430.225
1247.375	16.985	537.663	497.098	465.099	429.832
1249.404	16.915	535.532	494.791	464.804	430.125
1251.433	15.789	559.007	509.735	464.988	429.451
1253.462	22.319	565.915	558.068	536.778	510.846
1255.491	15.013	419.311	379.075	416.026	388.440
1257.521	20.948	386.259	374.215	375.462	359.612
1259.550	20.853	373.059	360.710	366.332	355.728
1261.579	21.586	368.842	358.112	361.212	349.348
1263.608	22.861	367.559	356.996	359.789	348.963
1265.637	29.820	367.119	356.402	359.051	348.087
1267.666	33.367	366.507	355.169	358.234	346.977
1269.696	33.768	366.374	354.814	357.827	346.736
1271.725	33.799	365.869	354.342	357.478	346.158
1273.754	33.820	365.204	353.790	356.866	345.515
1275.783	33.933	364.453	353.204	356.478	345.175
1277.812	33.892	364.067	352.548	356.344	344.664
1279.842	33.952	363.974	352.622	355.788	344.083
1281.871	33.914	363.545	351.833	355.241	343.511
1283.900	33.978	362.684	351.376	354.986	343.463
1285.929	33.941	361.781	350.422	354.807	342.873
1287.958	33.979	361.259	349.356	354.228	342.547
1289.988	33.918	361.138	349.612	353.795	342.234
1292.017	33.755	361.119	349.446	353.522	341.771
1294.046	37.158	360.523	349.180	352.986	341.253
1296.075	38.772	360.206	349.011	352.588	341.055
1298.104	38.731	359.797	347.880	352.120	340.505
1300.133	38.760	359.251	347.518	351.931	340.147
1302.163	38.855	358.816	347.365	351.429	339.749
1304.192	24.597	804.012	665.758	770.130	640.932
1306.221	51.931	957.711	1058.259	932.635	1045.492
1308.250	-46.334	219.891	62.337	214.960	61.737
1310.279	46.933	87.396	91.908	85.416	88.608
1312.309	-34.547	21.606	7.646	21.141	7.583
1314.338	-71.460	0.981	0.158	1.009	0.207
1316.367	8.884	-0.219	-0.150	-0.161	-0.243
1318.396	43.126	-0.378	-0.383	-0.254	-0.435
1320.425	50.464	-0.385	-0.419	-0.231	-0.317
1322.455	69.666	-0.395	-0.513	-0.300	-0.305
1324.484	102.690	-0.320	-0.539	-0.335	-0.580
1326.513	20.816	-0.521	-0.412	-0.424	-0.395
1328.542	60.429	-0.475	-0.567	-0.357	-0.542
1330.571	73.631	-0.448	-0.601	-0.591	-0.536
1332.601	39.614	-0.504	-0.491	-0.358	-0.575
1334.630	87.748	-0.435	-0.655	-0.403	-0.479
1336.659	111.937	-0.373	-0.670	-0.323	-0.448
1338.688	33.742	-0.511	-0.467	-0.393	-0.512
1340.717	47.260	-0.538	-0.558	-0.345	-0.593
1342.746	94.594	-0.434	-0.611	-0.377	-0.487
1344.776	73.314	-0.480	-0.594	-0.398	-0.481
1346.805	86.191	-0.520	-0.607	-0.457	-0.623
1348.834	190.838	-0.484	-0.674	-0.443	-0.508
1350.863	700.000	-0.559	-0.628	-0.505	-0.594
1352.892	286.904	-0.530	-0.690	-0.426	-0.641
1354.922	-20.017	-0.574	-0.516	-0.642	-0.625
1356.951	-200.000	-0.458	-0.697	-0.528	-0.583
1358.980	700.000	-0.551	-0.568	-0.500	-0.441
1361.009	-73.457	-0.462	-0.624	-0.335	-0.544
1363.038	-60.615	-0.509	-0.649	-0.438	-0.582
1365.068	61.932	-0.539	-0.704	-0.527	-0.545
1367.097	162.153	-0.526	-0.676	-0.475	-0.535
1369.126	47.847	-0.539	-0.547	-0.452	-0.611
1371.155	57.460	-0.529	-0.684	-0.513	-0.521
1373.184	25.699	-0.612	-0.688	-0.329	-0.662
1375.214	163.091	-0.623	-0.619	-0.405	-0.494
1377.243	-45.771	-0.568	-0.656	-0.470	-0.451
1379.272	-23.495	-0.471	-0.547	-0.508	-0.592
1381.301	20.112	-0.577	-0.643	-0.376	-0.716
1383.330	136.492	-0.518	-0.622	-0.424	-0.499
1385.359	19.933	-0.484	-0.737	-0.389	-0.624
1387.389	376.988	-0.569	-0.757	-0.452	-0.632
1389.418	-200.000	-0.537	-0.590	-0.484	-0.647
1391.447	159.585	-0.491	-0.544	-0.464	-0.646
1393.476	-108.368	-0.513	-0.603	-0.299	-0.538
1395.505	-200.000	-0.541	-0.582	-0.360	-0.633
1397.535	-59.088	-0.568	-0.553	-0.337	-0.582
